COUNTER, INTERPOLATED, RAW_CQ, AF3, F7, F3, FC5, T7, P7, O1, O2, P8,T8, FC6, F4, F8, AF4, GYROX, GYROY, TIMESTAMP, MARKER_HARDWARE, ES_TIMESTAMP, FUNC_ID, FUNC_VALUE, MARKER, SYNC_SIGNAL
114,0,0,4538.97435897436,4222.30769230769,4282.4358974359,4175,4242.94871794872,4230,4232.17948717949,4202.4358974359,4188.33333333333,4188.97435897436,4126.02564102564,4286.41025641026,4174.74358974359,4486.79487179487,0,0,0.041,0,0,0,0,0,0,
115,0,209,4528.20512820513,4226.41025641026,4270,4182.69230769231,4254.8717948718,4240.51282051282,4220.12820512821,4204.10256410256,4188.07692307692,4189.8717948718,4127.17948717949,4248.33333333333,4175.89743589744,4469.8717948718,0,0,0.0489161638267938,0,0,0,0,0,0,
116,0,0,4530.12820512821,4227.05128205128,4248.84615384615,4180.64102564103,4257.69230769231,4244.48717948718,4202.17948717949,4207.5641025641,4189.23076923077,4191.79487179487,4129.23076923077,4236.53846153846,4177.30769230769,4463.71794871795,8267,449,0.0568323276535876,0,0.0647484883666039,0,0,0,0,
117,0,62,4557.5641025641,4227.69230769231,4257.30769230769,4183.20512820513,4255.64102564103,4244.23076923077,4202.5641025641,4211.02564102564,4190.64102564103,4191.15384615385,4132.17948717949,4253.33333333333,4176.92307692308,4474.23076923077,8267,449,0.0647484914803814,0,0.0647484883666039,0,0,0,0,
118,0,0,4562.94871794872,4224.48717948718,4268.46153846154,4188.20512820513,4252.94871794872,4241.02564102564,4228.33333333333,4209.10256410256,4190.64102564103,4190.89743589744,4129.48717948718,4245.76923076923,4177.69230769231,4473.71794871795,8267,449,0.0726287121265595,0,0.0647484883666039,0,0,0,0,
119,0,209,4555,4220.51282051282,4274.10256410256,4182.17948717949,4250.76923076923,4236.53846153846,4229.74358974359,4199.23076923077,4190.38461538462,4191.53846153846,4125.89743589744,4226.02564102564,4176.02564102564,4465.64102564103,8267,449,0.0805089327727376,0,0.0647484883666039,0,0,0,0,
120,0,0,4543.46153846154,4220.64102564103,4261.92307692308,4177.82051282051,4253.20512820513,4239.23076923077,4217.05128205128,4192.94871794872,4190.12820512821,4191.15384615385,4129.48717948718,4224.8717948718,4175.25641025641,4462.4358974359,9995,14017,0.0884891534189157,0,0.0647484883666039,0,0,0,0,
121,0,62,4566.92307692308,4216.53846153846,4270.76923076923,4170.25641025641,4247.4358974359,4238.58974358974,4214.23076923077,4194.23076923077,4185.64102564103,4191.53846153846,4128.07692307692,4241.15384615385,4173.20512820513,4471.02564102564,9995,14017,0.0964693740650938,0,0.0647484883666039,0,0,0,0,
122,0,0,4582.05128205128,4213.97435897436,4286.15384615385,4168.46153846154,4243.97435897436,4237.5641025641,4224.23076923077,4197.30769230769,4186.41025641026,4188.33333333333,4124.74358974359,4228.33333333333,4172.30769230769,4464.48717948718,9995,14017,0.104349594711272,0,0.0647484883666039,0,0,0,0,
123,0,209,4572.30769230769,4212.94871794872,4291.28205128205,4163.71794871795,4241.41025641026,4234.74358974359,4227.17948717949,4195,4190,4184.61538461538,4124.35897435897,4207.69230769231,4170.76923076923,4458.58974358974,9995,14017,0.11232981535745,0,0.0647484883666039,0,0,0,0,
124,0,0,4550.25641025641,4218.33333333333,4290.12820512821,4162.82051282051,4250.12820512821,4236.66666666667,4225.25641025641,4200.64102564103,4188.46153846154,4187.17948717949,4128.33333333333,4195.25641025641,4171.92307692308,4442.4358974359,12299,10497,0.120310036003628,0,0.0647484883666039,0,0,0,0,
125,0,62,4569.8717948718,4212.30769230769,4293.07692307692,4151.53846153846,4244.8717948718,4227.4358974359,4225.25641025641,4207.17948717949,4184.8717948718,4190.51282051282,4127.05128205128,4182.5641025641,4169.35897435897,4439.61538461538,12299,10497,0.128290256649806,0,0.0647484883666039,0,0,0,0,
126,0,0,4577.30769230769,4212.4358974359,4273.07692307692,4153.20512820513,4240.89743589744,4228.71794871795,4222.4358974359,4204.35897435897,4186.15384615385,4188.97435897436,4127.5641025641,4155.25641025641,4169.8717948718,4435.25641025641,12299,10497,0.136170477295984,0,0.0647484883666039,0,0,0,0,
127,0,55,4561.41025641026,4211.28205128205,4275.89743589744,4148.97435897436,4237.94871794872,4230.64102564103,4225.38461538462,4191.53846153846,4186.53846153846,4189.35897435897,4126.79487179487,4165.89743589744,4171.92307692308,4444.35897435897,12299,10497,0.144150697942162,0,0.0647484883666039,0,0,0,0,
0,0,0,4548.84615384615,4209.48717948718,4298.71794871795,4153.07692307692,4242.82051282051,4231.02564102564,4227.4358974359,4189.23076923077,4186.02564102564,4192.30769230769,4127.69230769231,4180,4173.07692307692,4444.35897435897,14987,6273,0.15203091858834,0,0.0647484883666039,0,0,0,0,
1,0,122,4548.07692307692,4206.28205128205,4281.53846153846,4155.25641025641,4241.53846153846,4226.15384615385,4226.02564102564,4196.92307692308,4187.94871794872,4193.46153846154,4126.02564102564,4172.05128205128,4171.02564102564,4441.66666666667,14987,6273,0.160011139234519,0,0.0647484883666039,0,0,0,0,
2,0,0,4540.89743589744,4211.79487179487,4237.94871794872,4158.97435897436,4243.84615384615,4234.35897435897,4219.8717948718,4204.61538461538,4192.17948717949,4191.53846153846,4125.89743589744,4159.23076923077,4172.94871794872,4437.05128205128,14987,6273,0.167891359880697,0,0.0647484883666039,0,0,0,0,
3,0,77,4530.25641025641,4213.07692307692,4245.12820512821,4160.25641025641,4244.23076923077,4240,4223.58974358974,4200.64102564103,4191.79487179487,4189.48717948718,4127.05128205128,4181.66666666667,4177.94871794872,4446.66666666667,14987,6273,0.175871580526875,0,0.0647484883666039,0,0,0,0,
4,0,168,4507.17948717949,4216.15384615385,4256.66666666667,4176.66666666667,4252.17948717949,4246.02564102564,4228.84615384615,4191.92307692308,4187.30769230769,4189.35897435897,4131.02564102564,4187.69230769231,4180,4442.5641025641,1483,1537,0.183851801173053,0,0.0647484883666039,0,0,0,0,
5,0,158,4503.71794871795,4215.89743589744,4253.58974358974,4181.15384615385,4255.51282051282,4244.61538461538,4227.69230769231,4197.82051282051,4185.25641025641,4186.53846153846,4130.89743589744,4187.30769230769,4175.89743589744,4435.25641025641,1483,1537,0.191832021819231,0,0.0647484883666039,0,0,0,0,
6,0,0,4509.8717948718,4212.82051282051,4230,4173.97435897436,4254.35897435897,4241.15384615385,4206.53846153846,4218.58974358974,4189.8717948718,4184.61538461538,4128.33333333333,4206.53846153846,4174.48717948718,4449.8717948718,1483,1537,0.199712242465409,0,0.0647484883666039,0,0,0,0,
7,0,0,4498.07692307692,4211.15384615385,4216.79487179487,4178.71794871795,4248.07692307692,4240.25641025641,4206.79487179487,4218.71794871795,4193.07692307692,4188.20512820513,4128.97435897436,4222.4358974359,4176.79487179487,4460.76923076923,1483,1537,0.207692463111587,0,0.0647484883666039,0,0,0,0,
8,0,0,4482.4358974359,4213.46153846154,4231.41025641026,4181.15384615385,4244.61538461538,4243.58974358974,4220.12820512821,4193.20512820513,4190.38461538462,4189.35897435897,4129.23076923077,4243.07692307692,4176.41025641026,4476.66666666667,5067,13185,0.215572683757765,0,0.0647484883666039,0,0,0,0,
9,0,0,4489.35897435897,4210.89743589744,4248.20512820513,4178.71794871795,4247.94871794872,4245.12820512821,4227.4358974359,4177.82051282051,4184.10256410256,4187.94871794872,4130.25641025641,4251.53846153846,4175,4490.64102564103,5067,13185,0.223352904403943,0,0.0647484883666039,0,0,0,0,
10,0,0,4506.15384615385,4204.10256410256,4258.97435897436,4172.17948717949,4247.94871794872,4241.15384615385,4216.28205128205,4173.84615384615,4179.48717948718,4190.12820512821,4128.84615384615,4257.17948717949,4171.66666666667,4501.92307692308,5067,13185,0.231233125050121,0,0.0647484883666039,0,0,0,0,
11,0,229,4501.66666666667,4205.51282051282,4259.74358974359,4176.15384615385,4249.8717948718,4245.89743589744,4225.51282051282,4169.8717948718,4184.35897435897,4189.10256410256,4127.94871794872,4249.23076923077,4173.71794871795,4495.89743589744,5067,13185,0.2392133456963,0,0.0647484883666039,0,0,0,0,
12,0,0,4521.66666666667,4204.10256410256,4276.02564102564,4166.92307692308,4245.89743589744,4246.15384615385,4229.61538461538,4175.64102564103,4189.61538461538,4187.82051282051,4126.02564102564,4264.74358974359,4175,4507.17948717949,9036,8513,0.247093566342478,0,0.0647484883666039,0,0,0,0,
13,0,247,4530.25641025641,4203.20512820513,4265.89743589744,4166.02564102564,4250.64102564103,4247.4358974359,4220.76923076923,4197.82051282051,4189.74358974359,4190,4126.53846153846,4271.92307692308,4174.74358974359,4502.17948717949,9036,8513,0.255073786988656,0,0.0647484883666039,0,0,0,0,
14,0,0,4541.15384615385,4198.07692307692,4267.30769230769,4167.05128205128,4251.15384615385,4238.20512820513,4217.05128205128,4213.97435897436,4189.10256410256,4186.53846153846,4124.35897435897,4275,4170,4493.84615384615,9036,8513,0.262954007634834,0,0.0647484883666039,0,0,0,0,
15,0,229,4541.28205128205,4203.71794871795,4265.38461538462,4173.84615384615,4256.79487179487,4235.76923076923,4227.82051282051,4217.17948717949,4190.38461538462,4186.02564102564,4127.5641025641,4259.23076923077,4172.4358974359,4482.30769230769,9036,8513,0.270934228281012,0,0.0647484883666039,0,0,0,0,
16,0,0,4568.07692307692,4203.20512820513,4272.94871794872,4165.51282051282,4248.71794871795,4231.66666666667,4232.69230769231,4211.15384615385,4188.84615384615,4192.5641025641,4126.28205128205,4255.12820512821,4171.92307692308,4491.15384615385,14028,1921,0.27881444892719,0,0.0647484883666039,0,0,0,0,
17,0,0,4575,4201.02564102564,4267.30769230769,4168.33333333333,4250.64102564103,4236.28205128205,4226.02564102564,4211.79487179487,4189.48717948718,4192.5641025641,4122.17948717949,4255.64102564103,4169.61538461538,4490.25641025641,14028,1921,0.286594669573368,0,0.0647484883666039,0,0,0,0,
18,0,0,4578.07692307692,4194.74358974359,4272.4358974359,4168.07692307692,4251.28205128205,4235.51282051282,4238.84615384615,4204.35897435897,4189.61538461538,4188.71794871795,4121.92307692308,4248.20512820513,4169.10256410256,4490.38461538462,14028,1921,0.294474890219546,0,0.0647484883666039,0,0,0,0,
19,0,0,4582.82051282051,4197.05128205128,4287.30769230769,4168.46153846154,4252.30769230769,4241.02564102564,4255.64102564103,4191.41025641026,4186.28205128205,4187.94871794872,4130,4222.69230769231,4171.79487179487,4484.61538461538,14028,1921,0.302455110865724,0,0.0647484883666039,0,0,0,0,
20,0,0,4584.61538461538,4198.97435897436,4274.8717948718,4164.23076923077,4250.51282051282,4247.30769230769,4250.64102564103,4195.12820512821,4186.15384615385,4186.41025641026,4130.76923076923,4204.74358974359,4171.92307692308,4490.76923076923,652,14977,0.310435331511902,0,0.0647484883666039,0,0,0,0,
21,0,0,4588.33333333333,4198.84615384615,4246.15384615385,4164.23076923077,4252.94871794872,4247.94871794872,4215.64102564103,4217.5641025641,4190.25641025641,4185.76923076923,4129.48717948718,4196.79487179487,4174.23076923077,4490.76923076923,652,14977,0.318415552158081,0,0.0647484883666039,0,0,0,0,
22,0,0,4588.33333333333,4196.92307692308,4236.28205128205,4161.15384615385,4256.79487179487,4241.92307692308,4201.92307692308,4231.15384615385,4192.5641025641,4185.64102564103,4129.61538461538,4179.74358974359,4174.23076923077,4490.89743589744,652,14977,0.326295772804259,0,0.0647484883666039,0,0,0,0,
23,0,0,4592.30769230769,4192.5641025641,4244.10256410256,4156.41025641026,4254.61538461538,4236.79487179487,4202.4358974359,4228.20512820513,4191.02564102564,4184.35897435897,4127.69230769231,4163.07692307692,4169.35897435897,4493.71794871795,652,14977,0.334175993450437,0,0.0647484883666039,0,0,0,0,
24,0,0,4579.61538461538,4190.12820512821,4241.15384615385,4159.23076923077,4255.89743589744,4238.97435897436,4204.23076923077,4214.23076923077,4189.10256410256,4183.97435897436,4126.53846153846,4152.94871794872,4166.79487179487,4481.53846153846,7244,6145,0.341956214096615,0,0.0647484883666039,0,0,0,0,
25,0,0,4591.79487179487,4182.94871794872,4233.07692307692,4153.71794871795,4250,4233.71794871795,4202.17948717949,4203.07692307692,4186.15384615385,4186.28205128205,4127.05128205128,4141.53846153846,4171.15384615385,4490.51282051282,7244,6145,0.349736434742793,0,0.0647484883666039,0,0,0,0,
26,0,0,4606.41025641026,4181.15384615385,4225.64102564103,4147.30769230769,4247.82051282051,4232.4358974359,4203.33333333333,4213.33333333333,4187.17948717949,4185.89743589744,4128.07692307692,4134.8717948718,4174.8717948718,4506.28205128205,7244,6145,0.357616655388971,0,0.0647484883666039,0,0,0,0,
27,0,0,4598.58974358974,4179.35897435897,4228.20512820513,4140.89743589744,4242.17948717949,4225.38461538462,4199.10256410256,4226.28205128205,4191.02564102564,4187.5641025641,4125.64102564103,4140.12820512821,4172.5641025641,4520.51282051282,7244,6145,0.365596876035149,0,0.0647484883666039,0,0,0,0,
28,0,0,4576.28205128205,4178.84615384615,4242.69230769231,4144.8717948718,4242.30769230769,4221.28205128205,4200.76923076923,4231.79487179487,4193.84615384615,4187.94871794872,4127.5641025641,4140.38461538462,4174.35897435897,4510.51282051282,14924,12673,0.373477096681327,0,0.0647484883666039,0,0,0,0,
29,0,0,4580.12820512821,4169.23076923077,4241.66666666667,4136.92307692308,4234.74358974359,4213.84615384615,4204.23076923077,4231.79487179487,4193.07692307692,4184.74358974359,4127.94871794872,4155,4175.25641025641,4520.89743589744,14924,12673,0.381457317327505,0,0.0647484883666039,0,0,0,0,
30,0,0,4575.76923076923,4165.64102564103,4234.61538461538,4141.15384615385,4231.02564102564,4217.94871794872,4199.8717948718,4225.25641025641,4188.97435897436,4184.35897435897,4127.5641025641,4158.71794871795,4172.05128205128,4520,14924,12673,0.389337537973683,0,0.0647484883666039,0,0,0,0,
31,0,0,4569.23076923077,4161.92307692308,4243.33333333333,4141.66666666667,4223.07692307692,4211.92307692308,4198.71794871795,4211.15384615385,4183.46153846154,4186.53846153846,4126.53846153846,4189.8717948718,4168.20512820513,4535.76923076923,14924,12673,0.397317758619862,0,0.0647484883666039,0,0,0,0,
32,0,0,4559.74358974359,4163.20512820513,4242.30769230769,4143.97435897436,4222.82051282051,4206.53846153846,4207.17948717949,4206.15384615385,4183.20512820513,4187.30769230769,4130.25641025641,4221.28205128205,4174.8717948718,4544.61538461538,6860,5568,0.40519797926604,0,0.0647484883666039,0,0,0,0,
33,0,0,4548.84615384615,4160.89743589744,4264.23076923077,4137.17948717949,4218.97435897436,4202.4358974359,4215.38461538462,4198.97435897436,4185.64102564103,4185.51282051282,4129.10256410256,4251.53846153846,4175,4547.05128205128,6860,5568,0.412978199912218,0,0.0647484883666039,0,0,0,0,
34,0,0,4528.20512820513,4161.53846153846,4272.4358974359,4138.46153846154,4218.46153846154,4203.46153846154,4204.61538461538,4189.35897435897,4183.46153846154,4187.17948717949,4129.61538461538,4243.71794871795,4171.79487179487,4544.35897435897,6860,5568,0.420858420558396,0,0.0647484883666039,0,0,0,0,
35,0,0,4548.71794871795,4161.53846153846,4270.89743589744,4135.12820512821,4213.97435897436,4201.53846153846,4202.69230769231,4181.79487179487,4177.69230769231,4190.12820512821,4130.38461538462,4266.15384615385,4174.23076923077,4559.10256410256,6860,5568,0.428838641204574,0,0.0647484883666039,0,0,0,0,
36,0,0,4552.82051282051,4165.51282051282,4245.51282051282,4140.51282051282,4217.17948717949,4202.5641025641,4201.79487179487,4179.74358974359,4178.97435897436,4188.58974358974,4135.51282051282,4287.69230769231,4181.28205128205,4566.02564102564,13964,2880,0.436818861850752,0,0.0647484883666039,0,0,0,0,
37,0,0,4544.23076923077,4170.25641025641,4258.33333333333,4140.12820512821,4218.97435897436,4202.4358974359,4193.46153846154,4181.53846153846,4183.58974358974,4189.48717948718,4138.71794871795,4291.66666666667,4180.76923076923,4565.25641025641,13964,2880,0.44459908249693,0,0.0647484883666039,0,0,0,0,
38,0,0,4546.92307692308,4168.97435897436,4278.58974358974,4135.51282051282,4216.53846153846,4197.94871794872,4169.8717948718,4187.5641025641,4186.41025641026,4192.94871794872,4138.20512820513,4300.25641025641,4179.23076923077,4572.94871794872,13964,2880,0.452479303143108,0,0.0647484883666039,0,0,0,0,
39,0,0,4575,4167.30769230769,4288.07692307692,4135.25641025641,4212.4358974359,4197.05128205128,4175.51282051282,4191.15384615385,4187.05128205128,4189.48717948718,4135.89743589744,4320.38461538462,4180.89743589744,4583.07692307692,13964,2880,0.460459523789286,0,0.0647484883666039,0,0,0,0,
40,0,0,4609.8717948718,4164.8717948718,4308.07692307692,4129.74358974359,4202.69230769231,4192.30769230769,4176.41025641026,4191.41025641026,4187.82051282051,4182.82051282051,4136.53846153846,4352.17948717949,4183.33333333333,4596.02564102564,2188,2560,0.468439744435464,0,0.0647484883666039,0,0,0,0,
41,0,0,4612.30769230769,4166.66666666667,4302.82051282051,4130.25641025641,4199.8717948718,4190.38461538462,4174.8717948718,4196.79487179487,4189.23076923077,4189.10256410256,4137.69230769231,4349.8717948718,4183.33333333333,4595.12820512821,2188,2560,0.476419965081643,0,0.0647484883666039,0,0,0,0,
42,0,0,4632.94871794872,4161.66666666667,4308.58974358974,4125.89743589744,4192.5641025641,4184.10256410256,4172.05128205128,4198.46153846154,4186.79487179487,4194.8717948718,4132.30769230769,4350.64102564103,4178.97435897436,4606.02564102564,2188,2560,0.484300185727821,0,0.0647484883666039,0,0,0,0,
43,0,0,4643.20512820513,4162.94871794872,4324.23076923077,4123.46153846154,4191.53846153846,4181.66666666667,4172.69230769231,4194.74358974359,4183.71794871795,4191.02564102564,4130.12820512821,4350.64102564103,4179.61538461538,4605.12820512821,2188,2560,0.492280406373999,0,0.0647484883666039,0,0,0,0,
44,0,0,4661.15384615385,4160.38461538462,4357.30769230769,4114.35897435897,4186.02564102564,4176.15384615385,4166.41025641026,4185,4183.46153846154,4187.4358974359,4130.64102564103,4352.5641025641,4179.10256410256,4599.48717948718,4748,2496,0.500160627020177,0,0.0647484883666039,0,0,0,0,
45,0,0,4650,4161.41025641026,4340.25641025641,4118.07692307692,4188.84615384615,4181.28205128205,4165.64102564103,4178.33333333333,4183.97435897436,4189.8717948718,4134.48717948718,4335.25641025641,4178.97435897436,4587.4358974359,4748,2496,0.507940847666355,0,0.0647484883666039,0,0,0,0,
46,0,0,4663.33333333333,4158.20512820513,4335.38461538462,4106.15384615385,4181.41025641026,4175,4170,4178.20512820513,4180.64102564103,4192.69230769231,4131.66666666667,4335.76923076923,4177.30769230769,4595,4748,2496,0.515821068312533,0,0.0647484883666039,0,0,0,0,
47,0,0,4661.79487179487,4160.51282051282,4347.4358974359,4101.79487179487,4177.82051282051,4172.4358974359,4172.4358974359,4186.92307692308,4182.5641025641,4191.28205128205,4130.12820512821,4321.79487179487,4177.5641025641,4583.46153846154,4748,2496,0.523801288958711,0,0.0647484883666039,0,0,0,0,
48,0,0,4658.07692307692,4158.84615384615,4352.30769230769,4098.58974358974,4174.61538461538,4171.15384615385,4179.23076923077,4188.84615384615,4187.82051282051,4187.5641025641,4129.35897435897,4301.66666666667,4174.61538461538,4578.33333333333,5772,3072,0.531681509604889,0,0.539461731910706,0,0,0,0,
49,0,0,4663.07692307692,4157.4358974359,4336.66666666667,4103.20512820513,4177.69230769231,4174.10256410256,4174.35897435897,4184.74358974359,4189.48717948718,4189.23076923077,4130.64102564103,4286.53846153846,4177.69230769231,4572.5641025641,5772,3072,0.539461730251067,0,0.539461731910706,0,0,0,0,
50,0,0,4667.94871794872,4155.89743589744,4334.61538461538,4097.5641025641,4171.79487179487,4171.15384615385,4176.15384615385,4182.05128205128,4185.38461538462,4194.48717948718,4130.76923076923,4289.35897435897,4178.97435897436,4575.64102564103,5772,3072,0.547341950897245,0,0.539461731910706,0,0,0,0,
51,0,0,4667.4358974359,4156.79487179487,4342.5641025641,4093.07692307692,4170,4169.8717948718,4180.25641025641,4184.23076923077,4182.5641025641,4191.02564102564,4134.23076923077,4282.17948717949,4179.8717948718,4577.05128205128,5772,3072,0.555322171543424,0,0.539461731910706,0,0,0,0,
52,0,0,4671.66666666667,4156.53846153846,4344.35897435897,4091.92307692308,4174.48717948718,4169.48717948718,4179.23076923077,4186.15384615385,4184.61538461538,4187.17948717949,4135.64102564103,4267.05128205128,4184.23076923077,4578.97435897436,5964,3136,0.563102392189602,0,0.539461731910706,0,0,0,0,
53,0,0,4659.35897435897,4163.07692307692,4327.5641025641,4103.71794871795,4179.8717948718,4174.48717948718,4155.76923076923,4191.92307692308,4187.4358974359,4191.66666666667,4138.20512820513,4240.76923076923,4187.82051282051,4565.76923076923,5964,3136,0.57088261283578,0,0.539461731910706,0,0,0,0,
54,0,0,4642.69230769231,4164.8717948718,4325.64102564103,4102.82051282051,4174.74358974359,4174.8717948718,4141.79487179487,4197.17948717949,4188.84615384615,4193.97435897436,4141.02564102564,4254.23076923077,4186.15384615385,4560.64102564103,5964,3136,0.578762833481958,0,0.539461731910706,0,0,0,0,
55,0,0,4649.8717948718,4159.10256410256,4342.82051282051,4091.41025641026,4168.97435897436,4166.66666666667,4143.71794871795,4195,4189.61538461538,4189.10256410256,4139.74358974359,4289.10256410256,4184.8717948718,4575.25641025641,5964,3136,0.586743054128136,0,0.539461731910706,0,0,0,0,
56,0,0,4649.23076923077,4158.84615384615,4345.25641025641,4094.8717948718,4172.94871794872,4165,4147.05128205128,4193.58974358974,4191.15384615385,4188.71794871795,4137.94871794872,4282.82051282051,4185.89743589744,4573.46153846154,5708,3008,0.594623274774314,0,0.539461731910706,0,0,0,0,
57,0,0,4636.53846153846,4162.05128205128,4317.69230769231,4100,4170.51282051282,4167.30769230769,4131.28205128205,4199.8717948718,4190.64102564103,4193.71794871795,4137.30769230769,4278.71794871795,4186.41025641026,4580.64102564103,5708,3008,0.602403495420492,0,0.539461731910706,0,0,0,0,
58,0,0,4640.38461538462,4157.30769230769,4311.41025641026,4100.25641025641,4163.07692307692,4167.4358974359,4133.97435897436,4202.17948717949,4187.82051282051,4189.74358974359,4138.46153846154,4307.69230769231,4186.79487179487,4595,5708,3008,0.61028371606667,0,0.539461731910706,0,0,0,0,
59,0,0,4654.23076923077,4150.25641025641,4332.05128205128,4093.46153846154,4157.17948717949,4161.02564102564,4147.82051282051,4192.69230769231,4182.4358974359,4185.64102564103,4135.25641025641,4344.23076923077,4183.07692307692,4613.46153846154,5708,3008,0.618063936712848,0,0.539461731910706,0,0,0,0,
60,0,0,4637.69230769231,4154.23076923077,4335.25641025641,4098.33333333333,4162.05128205128,4159.74358974359,4154.35897435897,4189.74358974359,4181.66666666667,4186.92307692308,4136.66666666667,4336.92307692308,4184.35897435897,4605.38461538462,5004,2816,0.625844157359027,0,0.539461731910706,0,0,0,0,
61,0,0,4616.92307692308,4154.74358974359,4335,4096.53846153846,4161.15384615385,4154.61538461538,4152.05128205128,4186.53846153846,4183.33333333333,4186.66666666667,4135,4348.58974358974,4185,4612.69230769231,5004,2816,0.633624378005205,0,0.539461731910706,0,0,0,0,
62,0,0,4597.30769230769,4155.12820512821,4333.07692307692,4099.61538461538,4165,4157.05128205128,4156.53846153846,4181.66666666667,4182.94871794872,4187.4358974359,4134.74358974359,4352.5641025641,4185.64102564103,4617.30769230769,5004,2816,0.641504598651383,0,0.539461731910706,0,0,0,0,
63,0,0,4617.94871794872,4151.41025641026,4338.07692307692,4092.5641025641,4160.64102564103,4153.71794871795,4157.17948717949,4183.97435897436,4184.48717948718,4194.74358974359,4133.20512820513,4357.05128205128,4183.97435897436,4621.53846153846,5004,2816,0.649384819297561,0,0.539461731910706,0,0,0,0,
64,0,129,4627.4358974359,4154.8717948718,4324.23076923077,4096.28205128205,4161.53846153846,4155.51282051282,4156.53846153846,4192.4358974359,4186.41025641026,4193.71794871795,4134.35897435897,4356.92307692308,4186.02564102564,4616.53846153846,4044,3072,0.657165039943739,0,0.664945244789124,0,0,0,0,
65,0,43,4631.15384615385,4153.84615384615,4346.41025641026,4094.35897435898,4160.25641025641,4152.69230769231,4158.58974358974,4187.30769230769,4183.71794871795,4184.10256410256,4130.76923076923,4377.05128205128,4184.8717948718,4628.20512820513,4044,3072,0.664945260589917,0,0.664945244789124,0,0,0,0,
66,0,0,4629.23076923077,4151.92307692308,4355.25641025641,4097.5641025641,4163.97435897436,4151.79487179487,4153.07692307692,4184.8717948718,4183.84615384615,4184.74358974359,4130.25641025641,4380.51282051282,4182.5641025641,4627.17948717949,4044,3072,0.672825481236095,0,0.664945244789124,0,0,0,0,
67,0,39,4651.79487179487,4150.25641025641,4341.02564102564,4100.12820512821,4161.15384615385,4152.94871794872,4158.07692307692,4186.92307692308,4184.61538461538,4190,4133.71794871795,4378.71794871795,4180.89743589744,4626.79487179487,4044,3072,0.680805701882273,0,0.664945244789124,0,0,0,0,
68,0,121,4670.38461538462,4157.4358974359,4330.51282051282,4107.94871794872,4162.30769230769,4163.33333333333,4165.51282051282,4186.41025641026,4185.12820512821,4190.51282051282,4136.53846153846,4390.76923076923,4185.64102564103,4629.23076923077,2956,3264,0.688585922528451,0,0.664945244789124,0,0,0,0,
69,0,142,4673.71794871795,4161.28205128205,4341.41025641026,4107.17948717949,4165,4166.15384615385,4170.76923076923,4184.35897435897,4187.69230769231,4191.28205128205,4136.02564102564,4394.8717948718,4188.20512820513,4632.94871794872,2956,3264,0.69636614317463,0,0.664945244789124,0,0,0,0,
70,0,0,4660.12820512821,4165.76923076923,4333.07692307692,4113.46153846154,4172.4358974359,4166.15384615385,4156.02564102564,4183.71794871795,4188.58974358974,4192.17948717949,4136.53846153846,4360.76923076923,4185.89743589744,4618.71794871795,2956,3264,0.704246363820808,0,0.664945244789124,0,0,0,0,
71,0,4,4652.30769230769,4166.92307692308,4321.02564102564,4120,4174.8717948718,4171.28205128205,4149.48717948718,4180.51282051282,4184.48717948718,4191.53846153846,4135.64102564103,4337.05128205128,4185.89743589744,4606.28205128205,2956,3264,0.712226584466986,0,0.664945244789124,0,0,0,0,
72,0,0,4670.12820512821,4163.58974358974,4342.5641025641,4114.74358974359,4169.10256410256,4171.92307692308,4146.79487179487,4174.74358974359,4182.05128205128,4190.38461538462,4132.5641025641,4355.64102564103,4184.10256410256,4612.5641025641,1740,3264,0.720106805113164,0,0.664945244789124,0,0,0,0,
73,0,0,4662.17948717949,4163.46153846154,4344.74358974359,4114.10256410256,4171.28205128205,4169.61538461538,4153.58974358974,4172.94871794872,4183.84615384615,4191.02564102564,4131.53846153846,4351.66666666667,4179.74358974359,4608.33333333333,1740,3264,0.728087025759342,0,0.664945244789124,0,0,0,0,
74,0,0,4669.8717948718,4163.07692307692,4346.02564102564,4108.46153846154,4168.97435897436,4164.48717948718,4154.48717948718,4173.97435897436,4185.64102564103,4190.64102564103,4128.33333333333,4328.97435897436,4176.41025641026,4602.05128205128,1740,3264,0.73596724640552,0,0.664945244789124,0,0,0,0,
75,0,114,4679.61538461539,4160.76923076923,4353.97435897436,4101.92307692308,4167.30769230769,4165.12820512821,4151.79487179487,4173.84615384615,4186.02564102564,4191.79487179487,4127.69230769231,4318.07692307692,4174.35897435897,4597.4358974359,1740,3264,0.743847467051698,0,0.664945244789124,0,0,0,0,
76,0,0,4683.97435897436,4159.23076923077,4357.94871794872,4095.76923076923,4166.41025641026,4163.97435897436,4148.84615384615,4165,4181.15384615385,4191.28205128205,4127.82051282051,4315.51282051282,4170.51282051282,4607.30769230769,204,3200,0.751627687697876,0,0.664945244789124,0,0,0,0,
77,0,211,4675.89743589744,4165.64102564103,4350.51282051282,4100.89743589744,4173.97435897436,4168.33333333333,4150.12820512821,4163.58974358974,4179.8717948718,4189.61538461538,4124.35897435897,4295.25641025641,4168.84615384615,4601.41025641026,204,3200,0.759407908344054,0,0.664945244789124,0,0,0,0,
78,0,0,4672.5641025641,4161.41025641026,4358.20512820513,4094.61538461539,4170,4162.4358974359,4152.17948717949,4165.38461538462,4181.02564102564,4191.15384615385,4119.48717948718,4286.02564102564,4167.4358974359,4600.76923076923,204,3200,0.767288128990232,0,0.664945244789124,0,0,0,0,
79,0,114,4659.8717948718,4159.10256410256,4356.02564102564,4096.79487179487,4171.15384615385,4162.05128205128,4149.35897435897,4159.10256410256,4179.61538461538,4192.4358974359,4124.10256410256,4272.5641025641,4168.97435897436,4586.79487179487,204,3200,0.775268349636411,0,0.664945244789124,0,0,0,0,
80,0,0,4658.58974358974,4157.94871794872,4344.10256410256,4094.61538461539,4169.48717948718,4162.5641025641,4145.76923076923,4150.38461538462,4176.66666666667,4192.05128205128,4124.23076923077,4272.17948717949,4169.10256410256,4584.8717948718,15820,3264,0.783148570282589,0,0.790928781032562,0,0,0,0,
81,0,211,4655.89743589744,4160.76923076923,4337.4358974359,4097.69230769231,4172.30769230769,4165.89743589744,4145.51282051282,4157.05128205128,4178.07692307692,4190.89743589744,4122.30769230769,4270.64102564103,4170.38461538462,4588.71794871795,15820,3264,0.790928790928767,0,0.790928781032562,0,0,0,0,
82,0,0,4641.15384615385,4157.30769230769,4343.33333333333,4096.92307692308,4169.61538461538,4160.25641025641,4156.66666666667,4160,4179.61538461538,4190.64102564103,4121.79487179487,4270.76923076923,4169.48717948718,4594.48717948718,15820,3264,0.798809011574945,0,0.790928781032562,0,0,0,0,
83,0,114,4622.5641025641,4156.66666666667,4335.64102564103,4100.64102564103,4169.74358974359,4162.30769230769,4155.38461538462,4157.94871794872,4179.10256410256,4190.38461538462,4124.61538461538,4269.8717948718,4172.4358974359,4589.35897435897,15820,3264,0.806589232221123,0,0.790928781032562,0,0,0,0,
84,0,0,4621.66666666667,4156.92307692308,4327.17948717949,4102.05128205128,4169.8717948718,4164.23076923077,4151.53846153846,4165.89743589744,4180.12820512821,4189.61538461538,4125.12820512821,4284.61538461538,4173.71794871795,4590.12820512821,14476,4160,0.814369452867301,0,0.790928781032562,0,0,0,0,
85,0,211,4610.12820512821,4165.76923076923,4315.89743589744,4116.92307692308,4183.33333333333,4168.97435897436,4152.69230769231,4179.48717948718,4182.82051282051,4189.61538461538,4130.25641025641,4281.79487179487,4177.82051282051,4581.79487179487,14476,4160,0.822149673513479,0,0.790928781032562,0,0,0,0,
86,0,0,4595.51282051282,4169.23076923077,4319.61538461538,4122.17948717949,4189.35897435897,4173.20512820513,4156.79487179487,4176.41025641026,4183.58974358974,4190.38461538462,4130.51282051282,4278.07692307692,4179.10256410256,4575.89743589744,14476,4160,0.830029894159657,0,0.790928781032562,0,0,0,0,
87,0,114,4587.5641025641,4167.4358974359,4303.97435897436,4120.51282051282,4189.48717948718,4178.84615384615,4141.66666666667,4170.51282051282,4181.53846153846,4191.79487179487,4128.20512820513,4288.58974358974,4177.30769230769,4587.4358974359,14476,4160,0.838010114805835,0,0.790928781032562,0,0,0,0,
88,0,0,4588.20512820513,4165.51282051282,4292.30769230769,4124.23076923077,4189.10256410256,4173.58974358974,4141.41025641026,4180.89743589744,4181.53846153846,4192.17948717949,4128.71794871795,4301.53846153846,4175.89743589744,4594.74358974359,13004,4736,0.845890335452014,0,0.790928781032562,0,0,0,0,
89,0,211,4573.84615384615,4166.53846153846,4296.79487179487,4127.82051282051,4190.64102564103,4166.28205128205,4146.92307692308,4186.02564102564,4184.61538461538,4191.66666666667,4129.61538461538,4308.97435897436,4175.38461538462,4599.10256410256,13004,4736,0.853670556098192,0,0.790928781032562,0,0,0,0,
90,0,0,4558.33333333333,4162.5641025641,4302.05128205128,4127.69230769231,4191.41025641026,4170.76923076923,4152.94871794872,4175.51282051282,4185.25641025641,4190.89743589744,4130.38461538462,4305.51282051282,4177.17948717949,4596.79487179487,13004,4736,0.86155077674437,0,0.790928781032562,0,0,0,0,
91,0,114,4578.97435897436,4157.17948717949,4318.97435897436,4118.33333333333,4184.35897435897,4176.15384615385,4151.53846153846,4167.30769230769,4183.20512820513,4191.02564102564,4128.33333333333,4333.84615384615,4176.28205128205,4610.38461538462,13004,4736,0.869330997390548,0,0.790928781032562,0,0,0,0,
92,0,0,4598.84615384615,4159.74358974359,4329.23076923077,4118.58974358974,4182.30769230769,4174.23076923077,4159.61538461538,4171.79487179487,4181.66666666667,4193.20512820513,4128.71794871795,4358.71794871795,4177.05128205128,4623.97435897436,12044,5568,0.877111218036726,0,0.790928781032562,0,0,0,0,
93,0,211,4616.79487179487,4159.10256410256,4339.61538461538,4116.02564102564,4180.25641025641,4165,4158.97435897436,4173.20512820513,4178.46153846154,4193.07692307692,4126.92307692308,4363.07692307692,4177.5641025641,4630.25641025641,12044,5568,0.884891438682904,0,0.790928781032562,0,0,0,0,
94,0,0,4614.35897435897,4159.35897435897,4335,4117.30769230769,4183.07692307692,4169.10256410256,4162.94871794872,4175.64102564103,4180.25641025641,4187.17948717949,4128.07692307692,4347.94871794872,4178.84615384615,4614.10256410256,12044,5568,0.892771659329082,0,0.790928781032562,0,0,0,0,
95,0,114,4634.8717948718,4152.82051282051,4357.4358974359,4107.5641025641,4173.71794871795,4168.46153846154,4161.66666666667,4176.41025641026,4183.97435897436,4187.4358974359,4125.12820512821,4361.15384615385,4175,4624.61538461538,12044,5568,0.90075187997526,0,0.790928781032562,0,0,0,0,
96,0,0,4644.10256410256,4155.25641025641,4351.15384615385,4114.74358974359,4175,4168.07692307692,4153.46153846154,4174.61538461538,4183.33333333333,4191.53846153846,4125.25641025641,4372.69230769231,4174.8717948718,4625.76923076923,11660,5888,0.908732100621438,0,0.924392521381378,0,0,0,0,
97,0,211,4654.74358974359,4155.51282051282,4345.89743589744,4113.20512820513,4172.94871794872,4162.69230769231,4160.76923076923,4174.74358974359,4181.28205128205,4188.58974358974,4124.8717948718,4375.64102564103,4176.28205128205,4622.05128205128,11660,5888,0.916612321267616,0,0.924392521381378,0,0,0,0,
98,0,0,4645.25641025641,4156.41025641026,4348.46153846154,4112.4358974359,4173.97435897436,4161.92307692308,4174.8717948718,4180.12820512821,4183.46153846154,4186.15384615385,4125.64102564103,4346.92307692308,4176.41025641026,4610,11660,5888,0.924392541913795,0,0.924392521381378,0,0,0,0,
99,0,114,4649.23076923077,4152.05128205128,4356.79487179487,4106.79487179487,4171.53846153846,4155.51282051282,4168.97435897436,4179.23076923077,4183.58974358974,4190.38461538462,4124.10256410256,4333.20512820513,4171.92307692308,4609.61538461538,11660,5888,0.932372762559973,0,0.924392521381378,0,0,0,0,
100,0,0,4662.17948717949,4152.17948717949,4355.25641025641,4105.25641025641,4172.5641025641,4160.76923076923,4160.76923076923,4183.58974358974,4185,4190.89743589744,4123.46153846154,4336.79487179487,4174.10256410256,4606.66666666667,11596,5504,0.940252983206151,0,0.924392521381378,0,0,0,0,
101,0,211,4661.28205128205,4152.30769230769,4362.05128205128,4099.35897435897,4171.92307692308,4165,4177.30769230769,4189.10256410256,4185.64102564103,4189.48717948718,4125.38461538462,4328.20512820513,4177.5641025641,4605.64102564103,11596,5504,0.948033203852329,0,0.924392521381378,0,0,0,0,
102,0,0,4643.71794871795,4159.35897435897,4359.35897435897,4109.10256410256,4181.41025641026,4168.07692307692,4168.97435897436,4183.33333333333,4183.33333333333,4189.8717948718,4133.33333333333,4297.5641025641,4179.23076923077,4587.94871794872,11596,5504,0.955813424498507,0,0.924392521381378,0,0,0,0,
103,0,114,4641.02564102564,4161.92307692308,4348.33333333333,4112.05128205128,4185.64102564103,4169.35897435897,4156.53846153846,4173.84615384615,4184.10256410256,4188.07692307692,4134.23076923077,4293.07692307692,4180.12820512821,4579.35897435897,11596,5504,0.963693645144685,0,0.924392521381378,0,0,0,0,
104,0,0,4668.71794871795,4156.92307692308,4355.89743589744,4099.48717948718,4180.12820512821,4168.46153846154,4158.33333333333,4178.71794871795,4185.89743589744,4188.71794871795,4129.8717948718,4310.89743589744,4182.30769230769,4589.8717948718,11852,5568,0.971473865790863,0,0.924392521381378,0,0,0,0,
105,0,211,4670.76923076923,4155,4368.84615384615,4098.20512820513,4179.35897435897,4166.53846153846,4162.17948717949,4185,4185.89743589744,4190.51282051282,4130.64102564103,4300.76923076923,4179.10256410256,4583.07692307692,11852,5568,0.979254086437041,0,0.924392521381378,0,0,0,0,
106,0,0,4658.97435897436,4154.74358974359,4361.66666666667,4102.17948717949,4179.61538461538,4166.53846153846,4149.35897435897,4179.61538461538,4185.64102564103,4189.23076923077,4134.8717948718,4265.64102564103,4175.64102564103,4581.28205128205,11852,5568,0.987034307083219,0,0.924392521381378,0,0,0,0,
107,0,114,4657.05128205128,4150,4344.61538461538,4095.51282051282,4175.25641025641,4166.92307692308,4143.20512820513,4177.30769230769,4185,4191.02564102564,4132.94871794872,4253.20512820513,4175.76923076923,4586.53846153846,11852,5568,0.994914527729398,0,0.924392521381378,0,0,0,0,
108,0,0,4664.61538461539,4145.76923076923,4361.15384615385,4078.46153846154,4165.89743589744,4156.53846153846,4141.28205128205,4179.74358974359,4184.35897435897,4191.79487179487,4126.92307692308,4287.69230769231,4174.48717948718,4597.4358974359,12044,5312,1.00279474837558,0,0.924392521381378,0,0,0,0,
109,0,211,4651.41025641026,4148.33333333333,4386.66666666667,4082.5641025641,4167.30769230769,4153.58974358974,4141.15384615385,4185.76923076923,4187.82051282051,4189.10256410256,4129.10256410256,4296.92307692308,4175.76923076923,4594.10256410256,12044,5312,1.01057496902175,0,0.924392521381378,0,0,0,0,
110,0,0,4645.12820512821,4145.76923076923,4367.82051282051,4084.74358974359,4167.4358974359,4151.66666666667,4141.92307692308,4184.74358974359,4187.17948717949,4189.8717948718,4129.74358974359,4289.23076923077,4175.64102564103,4605.25641025641,12044,5312,1.01835518966793,0,0.924392521381378,0,0,0,0,
111,0,114,4640.89743589744,4148.07692307692,4335.38461538462,4088.33333333333,4169.74358974359,4155.51282051282,4143.20512820513,4183.07692307692,4183.84615384615,4191.41025641026,4130.38461538462,4287.30769230769,4178.07692307692,4601.41025641026,12044,5312,1.02623541031411,0,0.924392521381378,0,0,0,0,
112,0,0,4634.23076923077,4147.94871794872,4343.84615384615,4086.66666666667,4164.74358974359,4155,4150.89743589744,4181.53846153846,4183.33333333333,4189.10256410256,4129.23076923077,4319.10256410256,4178.46153846154,4604.8717948718,12108,5184,1.03411563096029,0,1.04967606067657,0,0,0,0,
113,0,211,4613.71794871795,4149.23076923077,4347.94871794872,4098.07692307692,4169.35897435897,4156.53846153846,4160.38461538462,4182.05128205128,4182.94871794872,4189.23076923077,4131.28205128205,4327.17948717949,4177.17948717949,4604.48717948718,12108,5184,1.04189585160647,0,1.04967606067657,0,0,0,0,
114,0,0,4610.12820512821,4143.46153846154,4350.76923076923,4095.12820512821,4165.51282051282,4149.61538461538,4158.46153846154,4176.66666666667,4180.76923076923,4191.28205128205,4128.20512820513,4335.38461538462,4172.30769230769,4614.74358974359,12108,5184,1.04967607225264,0,1.04967606067657,0,0,0,0,
115,0,114,4596.41025641026,4143.84615384615,4344.35897435897,4093.46153846154,4165.25641025641,4151.53846153846,4154.48717948718,4175.38461538462,4182.17948717949,4191.53846153846,4128.46153846154,4343.84615384615,4176.15384615385,4621.28205128205,12108,5184,1.05755629289882,0,1.04967606067657,0,0,0,0,
116,0,0,4590.12820512821,4145.64102564103,4343.33333333333,4096.28205128205,4165.25641025641,4154.48717948718,4166.92307692308,4179.74358974359,4185.51282051282,4191.79487179487,4131.15384615385,4353.46153846154,4179.23076923077,4626.53846153846,12428,5248,1.065336513545,0,1.04967606067657,0,0,0,0,
117,0,211,4587.94871794872,4151.28205128205,4341.41025641026,4105.38461538462,4175.12820512821,4158.71794871795,4173.97435897436,4184.23076923077,4186.28205128205,4190.38461538462,4133.97435897436,4348.07692307692,4179.61538461538,4623.20512820513,12428,5248,1.07311673419118,0,1.04967606067657,0,0,0,0,
118,0,0,4598.33333333333,4151.15384615385,4359.8717948718,4101.53846153846,4179.8717948718,4158.71794871795,4169.10256410256,4184.61538461538,4185.76923076923,4187.94871794872,4133.46153846154,4354.23076923077,4178.97435897436,4624.48717948718,12428,5248,1.08089695483736,0,1.04967606067657,0,0,0,0,
119,0,114,4599.8717948718,4153.71794871795,4344.61538461538,4104.61538461538,4180.51282051282,4165.89743589744,4152.17948717949,4186.92307692308,4186.66666666667,4189.48717948718,4135.12820512821,4365.25641025641,4180,4622.5641025641,12428,5248,1.08877717548353,0,1.04967606067657,0,0,0,0,
120,0,0,4606.41025641026,4155.25641025641,4327.05128205128,4111.53846153846,4176.92307692308,4166.92307692308,4151.53846153846,4185.38461538462,4185.64102564103,4191.15384615385,4135.76923076923,4364.8717948718,4180.76923076923,4620.89743589744,12748,5248,1.09665739612971,0,1.04967606067657,0,0,0,0,
121,0,211,4614.35897435897,4155.12820512821,4346.92307692308,4111.92307692308,4175.25641025641,4161.02564102564,4152.17948717949,4180.38461538462,4186.15384615385,4190,4133.46153846154,4372.69230769231,4180.25641025641,4627.82051282051,12748,5248,1.10443761677589,0,1.04967606067657,0,0,0,0,
122,0,0,4612.05128205128,4155.51282051282,4356.02564102564,4112.17948717949,4177.69230769231,4162.17948717949,4155.89743589744,4182.4358974359,4189.23076923077,4190.89743589744,4133.71794871795,4376.41025641026,4181.02564102564,4622.82051282051,12748,5248,1.11221783742207,0,1.04967606067657,0,0,0,0,
123,0,114,4649.23076923077,4155.51282051282,4365,4109.61538461538,4171.02564102564,4165.76923076923,4146.66666666667,4185.64102564103,4186.92307692308,4191.02564102564,4134.35897435897,4383.07692307692,4180.76923076923,4626.41025641026,12748,5248,1.12009805806825,0,1.04967606067657,0,0,0,0,
124,0,0,4675.51282051282,4158.71794871795,4365.64102564103,4112.05128205128,4170.76923076923,4165.25641025641,4154.23076923077,4183.84615384615,4182.82051282051,4189.10256410256,4133.20512820513,4389.48717948718,4180.64102564103,4635.64102564103,12940,5568,1.12787827871443,0,1.04967606067657,0,0,0,0,
125,0,211,4673.20512820513,4156.53846153846,4377.05128205128,4106.66666666667,4168.97435897436,4157.4358974359,4163.97435897436,4183.84615384615,4182.69230769231,4192.30769230769,4132.05128205128,4390.89743589744,4177.05128205128,4638.07692307692,12940,5568,1.1356584993606,0,1.04967606067657,0,0,0,0,
126,0,0,4648.84615384615,4157.05128205128,4369.48717948718,4107.4358974359,4172.30769230769,4161.41025641026,4162.82051282051,4187.69230769231,4185,4192.94871794872,4135,4363.46153846154,4177.5641025641,4618.07692307692,12940,5568,1.14343872000678,0,1.04967606067657,0,0,0,0,
127,0,55,4667.30769230769,4152.5641025641,4372.5641025641,4096.79487179487,4166.66666666667,4158.46153846154,4152.69230769231,4181.92307692308,4184.74358974359,4187.82051282051,4133.33333333333,4349.61538461538,4177.69230769231,4618.07692307692,12940,5568,1.15131894065296,0,1.04967606067657,0,0,0,0,
0,0,295,4670.12820512821,4155.25641025641,4373.46153846154,4098.46153846154,4166.15384615385,4160.12820512821,4155.64102564103,4179.48717948718,4187.30769230769,4186.53846153846,4132.17948717949,4340.76923076923,4177.94871794872,4610.12820512821,12812,5760,1.15929916129914,0,1.17495965957642,0,0,0,0,
1,0,0,4660,4155.25641025641,4377.30769230769,4096.28205128205,4164.8717948718,4159.61538461538,4176.41025641026,4180.12820512821,4188.20512820513,4188.33333333333,4129.48717948718,4324.61538461538,4177.17948717949,4602.69230769231,12812,5760,1.16717938194532,0,1.17495965957642,0,0,0,0,
2,0,171,4655.38461538462,4157.69230769231,4372.05128205128,4097.05128205128,4171.92307692308,4163.97435897436,4176.79487179487,4182.30769230769,4187.5641025641,4189.23076923077,4131.53846153846,4297.05128205128,4179.35897435897,4588.84615384615,12812,5760,1.17495960259149,0,1.17495965957642,0,0,0,0,
3,0,11,4665.51282051282,4154.61538461538,4374.10256410256,4087.05128205128,4168.46153846154,4161.79487179487,4166.02564102564,4183.97435897436,4184.8717948718,4192.05128205128,4131.15384615385,4294.35897435897,4177.5641025641,4593.84615384615,12812,5760,1.18293982323767,0,1.17495965957642,0,0,0,0,
4,0,49,4668.33333333333,4155.12820512821,4380.76923076923,4086.79487179487,4168.20512820513,4162.05128205128,4169.10256410256,4185.51282051282,4183.33333333333,4191.41025641026,4131.02564102564,4291.41025641026,4178.46153846154,4600.89743589744,12556,5440,1.19082004388385,0,1.17495965957642,0,0,0,0,
5,0,82,4663.97435897436,4156.66666666667,4375.89743589744,4093.71794871795,4167.94871794872,4159.35897435897,4181.92307692308,4182.4358974359,4184.10256410256,4189.23076923077,4132.17948717949,4274.23076923077,4179.35897435897,4597.94871794872,12556,5440,1.19860026453003,0,1.17495965957642,0,0,0,0,
6,0,73,4655.51282051282,4161.92307692308,4353.20512820513,4103.07692307692,4173.58974358974,4165.64102564103,4167.69230769231,4185.51282051282,4184.61538461538,4191.66666666667,4138.33333333333,4244.10256410256,4179.35897435897,4576.02564102564,12556,5440,1.20638048517621,0,1.17495965957642,0,0,0,0,
7,0,11,4644.8717948718,4163.71794871795,4354.48717948718,4099.23076923077,4175.89743589744,4172.05128205128,4160,4190.89743589744,4183.58974358974,4191.28205128205,4138.07692307692,4243.58974358974,4180.51282051282,4569.8717948718,12556,5440,1.21426070582238,0,1.17495965957642,0,0,0,0,
8,0,0,4627.82051282051,4164.74358974359,4368.07692307692,4100.64102564103,4178.71794871795,4171.15384615385,4156.66666666667,4190.51282051282,4184.61538461538,4188.07692307692,4135.76923076923,4251.53846153846,4185.51282051282,4580.25641025641,12172,4992,1.22214092646856,0,1.17495965957642,0,0,0,0,
9,0,0,4621.79487179487,4163.46153846154,4364.61538461538,4108.97435897436,4177.5641025641,4167.69230769231,4148.97435897436,4187.69230769231,4187.05128205128,4189.74358974359,4136.53846153846,4260.76923076923,4182.94871794872,4581.66666666667,12172,4992,1.22992114711474,0,1.17495965957642,0,0,0,0,
10,0,0,4630.25641025641,4162.30769230769,4344.48717948718,4109.61538461538,4175.38461538462,4168.84615384615,4144.10256410256,4185.89743589744,4185.51282051282,4190.76923076923,4134.23076923077,4282.4358974359,4179.61538461538,4590.25641025641,12172,4992,1.23770136776092,0,1.17495965957642,0,0,0,0,
11,0,28,4620.38461538462,4161.92307692308,4346.28205128205,4109.23076923077,4174.48717948718,4168.84615384615,4156.79487179487,4187.05128205128,4182.5641025641,4188.46153846154,4132.82051282051,4288.84615384615,4183.33333333333,4589.74358974359,12172,4992,1.2455815884071,0,1.17495965957642,0,0,0,0,
12,0,0,4604.35897435897,4160.76923076923,4352.30769230769,4107.94871794872,4173.20512820513,4162.05128205128,4159.48717948718,4186.15384615385,4181.28205128205,4189.10256410256,4133.46153846154,4303.20512820513,4182.82051282051,4597.30769230769,11916,4672,1.25336180905328,0,1.17495965957642,0,0,0,0,
13,0,102,4608.97435897436,4159.35897435897,4346.15384615385,4112.4358974359,4175.64102564103,4159.61538461538,4158.58974358974,4186.02564102564,4183.07692307692,4190.12820512821,4135.38461538462,4326.53846153846,4181.02564102564,4608.20512820513,11916,4672,1.26114202969945,0,1.17495965957642,0,0,0,0,
14,0,0,4617.17948717949,4156.41025641026,4347.82051282051,4106.92307692308,4172.05128205128,4160,4156.92307692308,4184.10256410256,4186.15384615385,4190.89743589744,4130.89743589744,4348.84615384615,4180.12820512821,4627.30769230769,11916,4672,1.26892225034563,0,1.17495965957642,0,0,0,0,
15,0,28,4596.28205128205,4159.23076923077,4351.41025641026,4107.4358974359,4175,4164.61538461538,4163.33333333333,4182.4358974359,4184.23076923077,4188.46153846154,4132.69230769231,4334.10256410256,4182.4358974359,4623.20512820513,11916,4672,1.27680247099181,0,1.17495965957642,0,0,0,0,
16,0,0,4596.66666666667,4158.20512820513,4372.4358974359,4103.97435897436,4170,4160.25641025641,4163.20512820513,4180.51282051282,4181.41025641026,4184.23076923077,4134.74358974359,4345.51282051282,4178.58974358974,4628.07692307692,11468,4160,1.28468269163799,0,1.30024313926697,0,0,0,0,
17,0,0,4592.05128205128,4159.35897435897,4365.25641025641,4111.28205128205,4171.15384615385,4162.4358974359,4158.20512820513,4186.41025641026,4184.48717948718,4187.30769230769,4133.33333333333,4352.30769230769,4176.92307692308,4627.94871794872,11468,4160,1.29246291228417,0,1.30024313926697,0,0,0,0,
18,0,0,4602.05128205128,4157.05128205128,4364.74358974359,4106.53846153846,4168.97435897436,4162.69230769231,4157.30769230769,4186.92307692308,4186.79487179487,4191.41025641026,4129.61538461538,4356.53846153846,4177.05128205128,4631.92307692308,11468,4160,1.30024313293034,0,1.30024313926697,0,0,0,0,
19,0,0,4611.66666666667,4160.51282051282,4366.02564102564,4107.82051282051,4170,4164.61538461538,4167.05128205128,4184.23076923077,4185.89743589744,4188.71794871795,4132.17948717949,4354.35897435897,4180.51282051282,4625.12820512821,11468,4160,1.30812335357652,0,1.30024313926697,0,0,0,0,
20,0,0,4631.28205128205,4156.66666666667,4375.38461538462,4108.33333333333,4164.8717948718,4159.23076923077,4172.4358974359,4182.94871794872,4185.64102564103,4189.23076923077,4132.05128205128,4363.84615384615,4176.92307692308,4627.69230769231,11020,3648,1.3161035742227,0,1.30024313926697,0,0,0,0,
21,0,0,4640.76923076923,4156.41025641026,4362.5641025641,4114.10256410256,4169.23076923077,4160.89743589744,4166.41025641026,4184.8717948718,4188.71794871795,4193.46153846154,4131.28205128205,4380,4177.82051282051,4628.71794871795,11020,3648,1.32398379486888,0,1.30024313926697,0,0,0,0,
22,0,0,4651.41025641026,4159.23076923077,4369.23076923077,4111.53846153846,4169.35897435897,4162.5641025641,4170.38461538462,4183.71794871795,4188.46153846154,4189.61538461538,4131.28205128205,4390.25641025641,4184.23076923077,4632.05128205128,11020,3648,1.33176401551506,0,1.30024313926697,0,0,0,0,
23,0,0,4640.25641025641,4167.94871794872,4372.30769230769,4118.84615384615,4174.35897435897,4168.84615384615,4163.84615384615,4182.4358974359,4188.46153846154,4185,4135.64102564103,4365.51282051282,4188.97435897436,4623.07692307692,11020,3648,1.33964423616123,0,1.30024313926697,0,0,0,0,
24,0,0,4635.25641025641,4169.61538461538,4358.07692307692,4125.38461538462,4180.12820512821,4171.02564102564,4154.74358974359,4183.97435897436,4188.58974358974,4192.17948717949,4137.4358974359,4344.10256410256,4186.41025641026,4617.4358974359,10700,3136,1.34742445680741,0,1.30024313926697,0,0,0,0,
25,0,0,4655,4166.53846153846,4368.46153846154,4121.92307692308,4178.58974358974,4169.61538461538,4149.23076923077,4186.02564102564,4186.15384615385,4198.20512820513,4134.23076923077,4351.41025641026,4182.5641025641,4618.71794871795,10700,3136,1.35520467745359,0,1.30024313926697,0,0,0,0,
26,0,0,4649.48717948718,4164.61538461538,4383.97435897436,4116.66666666667,4174.74358974359,4168.20512820513,4162.94871794872,4182.17948717949,4185.25641025641,4189.23076923077,4133.33333333333,4339.48717948718,4182.17948717949,4611.92307692308,10700,3136,1.36298489809977,0,1.30024313926697,0,0,0,0,
27,0,0,4656.79487179487,4164.61538461538,4381.79487179487,4108.20512820513,4169.10256410256,4166.15384615385,4159.23076923077,4178.46153846154,4185.89743589744,4182.17948717949,4135,4316.41025641026,4180.89743589744,4609.61538461538,10700,3136,1.37086511874595,0,1.30024313926697,0,0,0,0,
28,0,0,4663.84615384615,4166.92307692308,4363.07692307692,4104.8717948718,4167.82051282051,4167.17948717949,4147.30769230769,4183.71794871795,4185.64102564103,4191.66666666667,4133.33333333333,4312.69230769231,4179.8717948718,4608.71794871795,10316,2944,1.37874533939212,0,1.30024313926697,0,0,0,0,
29,0,0,4666.53846153846,4163.58974358974,4381.15384615385,4099.8717948718,4164.8717948718,4160.64102564103,4149.23076923077,4185.89743589744,4182.82051282051,4196.79487179487,4131.02564102564,4323.58974358974,4178.58974358974,4616.53846153846,10316,2944,1.3865255600383,0,1.30024313926697,0,0,0,0,
30,0,0,4657.30769230769,4162.30769230769,4411.41025641026,4097.82051282051,4167.82051282051,4160.51282051282,4162.4358974359,4184.48717948718,4187.4358974359,4190,4135.64102564103,4316.79487179487,4180,4609.48717948718,10316,2944,1.39430578068448,0,1.30024313926697,0,0,0,0,
31,0,0,4668.97435897436,4160.51282051282,4407.05128205128,4085.64102564103,4164.10256410256,4160.12820512821,4162.69230769231,4186.15384615385,4188.97435897436,4189.61538461538,4133.33333333333,4302.82051282051,4177.82051282051,4613.71794871795,10316,2944,1.40218600133066,0,1.30024313926697,0,0,0,0,
32,0,0,4675.25641025641,4163.07692307692,4370.89743589744,4088.58974358974,4165.89743589744,4162.82051282051,4154.10256410256,4191.41025641026,4184.74358974359,4189.10256410256,4133.58974358974,4277.05128205128,4179.23076923077,4608.58974358974,9740,2880,1.40996622197684,0,1.42552661895752,0,0,0,0,
33,0,0,4671.41025641026,4157.5641025641,4371.92307692308,4088.71794871795,4160.51282051282,4156.15384615385,4157.17948717949,4186.02564102564,4182.5641025641,4184.10256410256,4135,4276.79487179487,4183.46153846154,4606.02564102564,9740,2880,1.41774644262302,0,1.42552661895752,0,0,0,0,
34,0,0,4645.12820512821,4155.89743589744,4393.33333333333,4092.30769230769,4159.8717948718,4156.92307692308,4155.89743589744,4182.30769230769,4183.46153846154,4186.41025641026,4135.51282051282,4273.97435897436,4184.23076923077,4596.92307692308,9740,2880,1.42552666326919,0,1.42552661895752,0,0,0,0,
35,0,0,4637.4358974359,4155.12820512821,4386.92307692308,4086.28205128205,4157.30769230769,4154.8717948718,4148.58974358974,4183.84615384615,4182.05128205128,4191.79487179487,4133.20512820513,4270.51282051282,4178.84615384615,4602.82051282051,9740,2880,1.43350688391537,0,1.42552661895752,0,0,0,0,
36,0,0,4652.4358974359,4157.4358974359,4358.33333333333,4089.48717948718,4161.02564102564,4156.79487179487,4142.94871794872,4187.05128205128,4182.82051282051,4189.74358974359,4136.53846153846,4271.15384615385,4180.25641025641,4603.97435897436,9228,3264,1.44138710456155,0,1.42552661895752,0,0,0,0,
37,0,0,4648.58974358974,4153.97435897436,4358.07692307692,4096.15384615385,4158.58974358974,4154.8717948718,4154.35897435897,4185.25641025641,4185.51282051282,4184.61538461538,4134.48717948718,4294.10256410256,4180.12820512821,4608.71794871795,9228,3264,1.44936732520773,0,1.42552661895752,0,0,0,0,
38,0,0,4611.15384615385,4156.92307692308,4369.10256410256,4106.66666666667,4161.66666666667,4158.97435897436,4162.17948717949,4189.8717948718,4187.5641025641,4186.28205128205,4135,4300.25641025641,4179.8717948718,4610.25641025641,9228,3264,1.45724754585391,0,1.42552661895752,0,0,0,0,
39,0,0,4600.76923076923,4161.28205128205,4363.84615384615,4104.48717948718,4166.92307692308,4160.64102564103,4161.02564102564,4197.94871794872,4187.94871794872,4191.66666666667,4141.02564102564,4307.5641025641,4184.8717948718,4610.64102564103,9228,3264,1.46502776650008,0,1.42552661895752,0,0,0,0,
40,0,0,4607.94871794872,4165.12820512821,4319.74358974359,4111.41025641026,4175.51282051282,4166.28205128205,4152.69230769231,4200.51282051282,4189.23076923077,4191.41025641026,4142.5641025641,4314.74358974359,4192.17948717949,4606.53846153846,8524,3392,1.47290798714626,0,1.42552661895752,0,0,0,0,
41,0,0,4605.76923076923,4164.23076923077,4317.82051282051,4118.58974358974,4176.28205128205,4170.12820512821,4155.25641025641,4198.84615384615,4190.12820512821,4189.48717948718,4140.64102564103,4316.92307692308,4190.64102564103,4608.20512820513,8524,3392,1.48068820779244,0,1.42552661895752,0,0,0,0,
42,0,0,4577.05128205128,4163.84615384615,4352.17948717949,4114.23076923077,4177.17948717949,4169.35897435897,4149.74358974359,4195.76923076923,4188.71794871795,4191.02564102564,4140,4323.84615384615,4186.66666666667,4622.4358974359,8524,3392,1.48846842843862,0,1.42552661895752,0,0,0,0,
43,0,0,4559.35897435897,4162.30769230769,4356.15384615385,4116.79487179487,4178.58974358974,4166.28205128205,4152.17948717949,4196.15384615385,4187.05128205128,4193.46153846154,4140.51282051282,4327.69230769231,4190.51282051282,4621.92307692308,8524,3392,1.4962486490848,0,1.42552661895752,0,0,0,0,
44,0,0,4587.4358974359,4160.25641025641,4344.48717948718,4116.53846153846,4173.97435897436,4167.82051282051,4155.12820512821,4198.58974358974,4186.53846153846,4191.41025641026,4136.92307692308,4355.25641025641,4188.33333333333,4629.35897435897,8332,3392,1.50412886973097,0,1.42552661895752,0,0,0,0,
45,0,0,4612.05128205128,4162.82051282051,4344.35897435897,4113.20512820513,4172.17948717949,4170.51282051282,4159.8717948718,4197.5641025641,4184.35897435897,4190.64102564103,4138.97435897436,4368.58974358974,4184.35897435897,4640.25641025641,8332,3392,1.51210909037715,0,1.42552661895752,0,0,0,0,
46,0,0,4619.35897435897,4162.69230769231,4363.71794871795,4107.5641025641,4170,4163.07692307692,4157.5641025641,4190,4183.33333333333,4191.28205128205,4140.12820512821,4365.12820512821,4184.61538461538,4644.23076923077,8332,3392,1.51998931102333,0,1.42552661895752,0,0,0,0,
47,0,0,4610.51282051282,4163.58974358974,4372.17948717949,4113.97435897436,4173.33333333333,4164.48717948718,4164.23076923077,4189.8717948718,4187.30769230769,4190.76923076923,4141.53846153846,4356.66666666667,4188.71794871795,4632.69230769231,8332,3392,1.52776953166951,0,1.42552661895752,0,0,0,0,
48,0,0,4628.58974358974,4159.74358974359,4392.5641025641,4110.51282051282,4167.4358974359,4163.20512820513,4162.94871794872,4195.38461538462,4188.84615384615,4189.35897435897,4138.97435897436,4363.71794871795,4184.74358974359,4644.74358974359,7948,3456,1.53564975231569,0,1.42552661895752,0,0,0,0,
49,0,0,4634.35897435897,4161.92307692308,4374.8717948718,4112.82051282051,4170.12820512821,4163.84615384615,4160.25641025641,4196.79487179487,4188.84615384615,4188.58974358974,4139.10256410256,4361.92307692308,4184.74358974359,4639.8717948718,7948,3456,1.54342997296187,0,1.42552661895752,0,0,0,0,
50,0,0,4649.48717948718,4160,4368.07692307692,4106.79487179487,4168.71794871795,4160.89743589744,4165.64102564103,4185.64102564103,4187.4358974359,4190.51282051282,4139.74358974359,4372.17948717949,4186.41025641026,4634.23076923077,7948,3456,1.55121019360804,0,1.42552661895752,0,0,0,0,
51,0,0,4646.66666666667,4162.17948717949,4372.05128205128,4113.71794871795,4173.07692307692,4163.58974358974,4175.25641025641,4182.82051282051,4184.8717948718,4191.53846153846,4141.02564102564,4363.20512820513,4187.05128205128,4629.74358974359,7948,3456,1.55899041425422,0,1.42552661895752,0,0,0,0,
52,0,0,4649.48717948718,4158.71794871795,4379.10256410256,4112.69230769231,4167.94871794872,4158.58974358974,4176.53846153846,4190,4185.64102564103,4191.41025641026,4136.02564102564,4345.12820512821,4184.74358974359,4626.53846153846,7564,3712,1.5668706349004,0,1.55899035930634,0,0,0,0,
53,0,0,4651.15384615385,4158.07692307692,4371.41025641026,4108.33333333333,4166.92307692308,4161.41025641026,4168.46153846154,4196.92307692308,4189.74358974359,4191.66666666667,4135.25641025641,4330.12820512821,4185.51282051282,4609.8717948718,7564,3712,1.57475085554658,0,1.55899035930634,0,0,0,0,
54,0,0,4647.82051282051,4155.51282051282,4371.15384615385,4104.10256410256,4167.05128205128,4163.20512820513,4176.79487179487,4195,4190.76923076923,4191.66666666667,4138.20512820513,4318.84615384615,4184.23076923077,4607.30769230769,7564,3712,1.58253107619276,0,1.55899035930634,0,0,0,0,
55,0,0,4643.97435897436,4160.38461538462,4379.61538461538,4113.71794871795,4175.76923076923,4166.66666666667,4182.5641025641,4192.69230769231,4191.02564102564,4192.17948717949,4141.66666666667,4297.4358974359,4184.74358974359,4600.38461538462,7564,3712,1.59031129683893,0,1.55899035930634,0,0,0,0,
56,0,0,4645.38461538462,4167.94871794872,4376.28205128205,4112.17948717949,4181.15384615385,4170.25641025641,4175.38461538462,4192.69230769231,4188.71794871795,4192.69230769231,4142.05128205128,4290.51282051282,4187.17948717949,4594.23076923077,7180,3904,1.59819151748511,0,1.55899035930634,0,0,0,0,
57,0,0,4656.66666666667,4172.69230769231,4358.58974358974,4110.51282051282,4180.51282051282,4174.35897435897,4161.02564102564,4194.35897435897,4185,4191.53846153846,4142.17948717949,4289.8717948718,4188.46153846154,4592.82051282051,7180,3904,1.60597173813129,0,1.55899035930634,0,0,0,0,
58,0,0,4658.07692307692,4169.8717948718,4359.35897435897,4113.84615384615,4178.20512820513,4172.82051282051,4165.38461538462,4191.41025641026,4187.5641025641,4190.38461538462,4141.66666666667,4275,4187.30769230769,4587.17948717949,7180,3904,1.61375195877747,0,1.55899035930634,0,0,0,0,
59,0,0,4647.4358974359,4163.97435897436,4372.94871794872,4108.97435897436,4176.28205128205,4169.23076923077,4160.25641025641,4187.69230769231,4191.15384615385,4189.35897435897,4141.28205128205,4254.74358974359,4185.89743589744,4586.53846153846,7180,3904,1.62153217942365,0,1.55899035930634,0,0,0,0,
60,0,0,4625.89743589744,4163.07692307692,4371.92307692308,4106.28205128205,4178.33333333333,4171.79487179487,4153.07692307692,4192.82051282051,4189.74358974359,4190,4139.23076923077,4244.48717948718,4187.30769230769,4578.33333333333,6796,3968,1.62941240006982,0,1.55899035930634,0,0,0,0,
61,0,0,4632.82051282051,4163.71794871795,4371.79487179487,4104.61538461538,4176.02564102564,4171.15384615385,4157.82051282051,4194.10256410256,4185.25641025641,4190.64102564103,4134.74358974359,4249.10256410256,4185.64102564103,4582.5641025641,6796,3968,1.637292620716,0,1.55899035930634,0,0,0,0,
62,0,0,4646.53846153846,4160.25641025641,4370.25641025641,4103.33333333333,4175,4168.84615384615,4167.05128205128,4190.76923076923,4184.8717948718,4191.53846153846,4136.92307692308,4247.17948717949,4183.33333333333,4592.94871794872,6796,3968,1.64507284136218,0,1.55899035930634,0,0,0,0,
63,0,0,4639.35897435897,4154.48717948718,4361.53846153846,4095.64102564103,4171.66666666667,4162.30769230769,4159.35897435897,4189.35897435897,4187.4358974359,4192.69230769231,4135.76923076923,4252.82051282051,4183.07692307692,4604.23076923077,6796,3968,1.65285306200836,0,1.55899035930634,0,0,0,0,
64,0,240,4618.46153846154,4158.07692307692,4365.25641025641,4102.05128205128,4174.48717948718,4163.20512820513,4149.10256410256,4190.12820512821,4191.02564102564,4190.25641025641,4134.10256410256,4256.15384615385,4186.02564102564,4590.64102564103,6604,3968,1.66073328265454,0,1.55899035930634,0,0,0,0,
65,0,0,4621.66666666667,4157.82051282051,4367.82051282051,4103.20512820513,4172.05128205128,4163.84615384615,4151.41025641026,4183.46153846154,4188.07692307692,4191.41025641026,4133.33333333333,4279.23076923077,4186.02564102564,4599.74358974359,6604,3968,1.66851350330072,0,1.55899035930634,0,0,0,0,
66,0,140,4614.35897435897,4158.71794871795,4346.15384615385,4107.82051282051,4174.74358974359,4170.25641025641,4161.41025641026,4180.38461538462,4181.92307692308,4191.02564102564,4135.64102564103,4286.15384615385,4186.66666666667,4602.82051282051,6604,3968,1.67629372394689,0,1.55899035930634,0,0,0,0,
67,0,0,4592.5641025641,4158.46153846154,4350.89743589744,4107.30769230769,4171.92307692308,4167.4358974359,4167.05128205128,4180,4181.41025641026,4186.15384615385,4134.10256410256,4291.92307692308,4185,4601.15384615385,6604,3968,1.68407394459307,0,1.55899035930634,0,0,0,0,
68,0,0,4569.35897435897,4162.30769230769,4359.23076923077,4116.66666666667,4178.07692307692,4166.79487179487,4165.64102564103,4183.71794871795,4185.64102564103,4186.79487179487,4137.30769230769,4293.97435897436,4185.38461538462,4600.12820512821,6220,3776,1.69195416523925,0,1.68407392501831,0,0,0,0,
69,0,26,4573.33333333333,4160.38461538462,4348.46153846154,4117.30769230769,4180.51282051282,4167.30769230769,4170.25641025641,4184.74358974359,4185.38461538462,4192.30769230769,4133.07692307692,4310.51282051282,4183.46153846154,4609.48717948718,6220,3776,1.69983438588543,0,1.68407392501831,0,0,0,0,
70,0,239,4575,4163.33333333333,4327.69230769231,4120.12820512821,4183.20512820513,4173.46153846154,4174.61538461538,4186.53846153846,4186.02564102564,4190.25641025641,4129.74358974359,4313.97435897436,4184.23076923077,4612.05128205128,6220,3776,1.70761460653161,0,1.68407392501831,0,0,0,0,
71,0,8,4568.33333333333,4164.61538461538,4349.8717948718,4124.10256410256,4183.71794871795,4171.92307692308,4182.05128205128,4188.33333333333,4185.76923076923,4188.33333333333,4134.10256410256,4318.33333333333,4185.25641025641,4616.53846153846,6220,3776,1.71539482717778,0,1.68407392501831,0,0,0,0,
72,0,0,4541.02564102564,4169.61538461538,4343.97435897436,4136.15384615385,4196.79487179487,4177.05128205128,4177.17948717949,4190.12820512821,4183.71794871795,4192.94871794872,4139.74358974359,4309.23076923077,4187.30769230769,4607.69230769231,5900,3392,1.72327504782396,0,1.68407392501831,0,0,0,0,
73,0,0,4546.66666666667,4171.02564102564,4322.4358974359,4138.58974358974,4200.25641025641,4182.05128205128,4170,4189.61538461538,4185.76923076923,4188.84615384615,4140.64102564103,4302.4358974359,4187.05128205128,4602.05128205128,5900,3392,1.73115526847014,0,1.68407392501831,0,0,0,0,
74,0,9,4573.07692307692,4169.35897435897,4342.17948717949,4134.48717948718,4195.51282051282,4183.33333333333,4162.05128205128,4184.74358974359,4187.17948717949,4183.71794871795,4137.82051282051,4331.41025641026,4186.66666666667,4611.28205128205,5900,3392,1.73893548911632,0,1.68407392501831,0,0,0,0,
75,0,7,4581.02564102564,4169.10256410256,4368.07692307692,4134.10256410256,4196.02564102564,4181.66666666667,4169.48717948718,4181.92307692308,4184.23076923077,4189.48717948718,4135.25641025641,4345.38461538462,4186.79487179487,4610.38461538462,5900,3392,1.7467157097625,0,1.68407392501831,0,0,0,0,
76,0,0,4593.71794871795,4171.02564102564,4357.69230769231,4136.15384615385,4195.12820512821,4180.51282051282,4165.89743589744,4186.15384615385,4184.8717948718,4193.84615384615,4135.38461538462,4328.97435897436,4182.05128205128,4608.46153846154,5708,3328,1.75459593040867,0,1.68407392501831,0,0,0,0,
77,0,93,4606.53846153846,4172.30769230769,4332.5641025641,4140.76923076923,4191.79487179487,4183.07692307692,4162.69230769231,4186.92307692308,4186.66666666667,4188.58974358974,4137.94871794872,4322.17948717949,4181.53846153846,4611.79487179487,5708,3328,1.76237615105485,0,1.68407392501831,0,0,0,0,
78,0,9,4625,4168.46153846154,4360.76923076923,4132.05128205128,4187.30769230769,4182.94871794872,4160.76923076923,4178.71794871795,4185.64102564103,4185.89743589744,4133.46153846154,4348.33333333333,4183.20512820513,4618.07692307692,5708,3328,1.77015637170103,0,1.68407392501831,0,0,0,0,
79,0,7,4627.5641025641,4170.38461538462,4378.84615384615,4127.5641025641,4191.28205128205,4184.35897435897,4172.5641025641,4180.38461538462,4188.46153846154,4188.71794871795,4129.8717948718,4350.38461538462,4182.05128205128,4611.66666666667,5708,3328,1.77793659234721,0,1.68407392501831,0,0,0,0,
80,0,0,4639.48717948718,4170.89743589744,4375.51282051282,4121.79487179487,4183.33333333333,4176.53846153846,4171.02564102564,4187.94871794872,4187.94871794872,4191.53846153846,4130.38461538462,4325.64102564103,4177.30769230769,4607.94871794872,5324,3072,1.78581681299339,0,1.68407392501831,0,0,0,0,
81,0,93,4623.20512820513,4172.69230769231,4361.15384615385,4126.28205128205,4183.07692307692,4179.61538461538,4160,4189.35897435897,4185.64102564103,4192.05128205128,4132.94871794872,4295.12820512821,4178.33333333333,4593.71794871795,5324,3072,1.79379703363956,0,1.68407392501831,0,0,0,0,
82,0,9,4626.79487179487,4166.92307692308,4380.76923076923,4118.20512820513,4181.41025641026,4179.74358974359,4169.23076923077,4182.69230769231,4186.66666666667,4188.07692307692,4130,4296.15384615385,4179.23076923077,4594.10256410256,5324,3072,1.80167725428574,0,1.68407392501831,0,0,0,0,
83,0,7,4630,4168.20512820513,4391.53846153846,4118.33333333333,4185.64102564103,4181.41025641026,4187.69230769231,4181.15384615385,4187.4358974359,4185.64102564103,4128.07692307692,4290.38461538462,4179.74358974359,4581.66666666667,5324,3072,1.80945747493192,0,1.68407392501831,0,0,0,0,
84,0,0,4630.64102564103,4170,4377.30769230769,4115.12820512821,4183.46153846154,4177.82051282051,4185.64102564103,4177.30769230769,4186.53846153846,4188.84615384615,4129.35897435897,4270.51282051282,4178.71794871795,4579.61538461538,4876,2560,1.8173376955781,0,1.8094574213028,0,0,0,0,
85,0,93,4634.10256410256,4172.30769230769,4363.71794871795,4118.58974358974,4185.25641025641,4181.41025641026,4172.17948717949,4177.5641025641,4186.92307692308,4192.94871794872,4134.61538461538,4257.05128205128,4180.89743589744,4582.05128205128,4876,2560,1.82511791622428,0,1.8094574213028,0,0,0,0,
86,0,9,4634.35897435897,4165.89743589744,4369.8717948718,4114.61538461538,4183.20512820513,4180.76923076923,4182.05128205128,4180.89743589744,4183.97435897436,4192.4358974359,4131.79487179487,4253.07692307692,4181.41025641026,4579.61538461538,4876,2560,1.83289813687046,0,1.8094574213028,0,0,0,0,
87,0,7,4620.25641025641,4167.4358974359,4366.41025641026,4112.69230769231,4185.25641025641,4182.94871794872,4183.97435897436,4185,4183.84615384615,4190.64102564103,4131.28205128205,4224.8717948718,4182.5641025641,4565.38461538462,4876,2560,1.84067835751663,0,1.8094574213028,0,0,0,0,
88,0,0,4614.8717948718,4171.41025641026,4361.02564102564,4113.07692307692,4187.30769230769,4183.07692307692,4180.12820512821,4185.25641025641,4185.51282051282,4191.53846153846,4132.5641025641,4219.48717948718,4182.05128205128,4567.5641025641,4364,2240,1.84855857816281,0,1.8094574213028,0,0,0,0,
89,0,93,4601.66666666667,4175.38461538462,4358.20512820513,4128.20512820513,4196.02564102564,4186.15384615385,4169.48717948718,4185.51282051282,4185.51282051282,4192.5641025641,4135.25641025641,4225,4184.35897435897,4563.97435897436,4364,2240,1.85643879880899,0,1.8094574213028,0,0,0,0,
90,0,9,4588.84615384615,4174.10256410256,4356.15384615385,4130.89743589744,4198.71794871795,4189.10256410256,4162.69230769231,4183.84615384615,4186.41025641026,4192.5641025641,4135.38461538462,4224.61538461538,4185.25641025641,4556.02564102564,4364,2240,1.86421901945517,0,1.8094574213028,0,0,0,0,
91,0,7,4609.35897435897,4172.69230769231,4340.12820512821,4122.05128205128,4192.17948717949,4188.97435897436,4156.79487179487,4185,4188.84615384615,4190.25641025641,4133.84615384615,4225,4184.23076923077,4569.74358974359,4364,2240,1.87199924010135,0,1.8094574213028,0,0,0,0,
92,0,0,4610.25641025641,4172.94871794872,4337.17948717949,4128.58974358974,4189.35897435897,4185,4160,4191.02564102564,4188.58974358974,4191.41025641026,4132.69230769231,4230.76923076923,4183.58974358974,4572.4358974359,3724,1984,1.87987946074752,0,1.8094574213028,0,0,0,0,
93,0,93,4577.30769230769,4172.30769230769,4345.25641025641,4134.74358974359,4191.02564102564,4181.92307692308,4156.92307692308,4190.38461538462,4186.41025641026,4193.58974358974,4130.64102564103,4252.30769230769,4182.4358974359,4577.4358974359,3724,1984,1.8876596813937,0,1.8094574213028,0,0,0,0,
94,0,9,4572.69230769231,4170.76923076923,4349.10256410256,4132.05128205128,4190.25641025641,4182.05128205128,4158.58974358974,4186.92307692308,4185.51282051282,4189.8717948718,4133.58974358974,4275.25641025641,4181.92307692308,4584.10256410256,3724,1984,1.89543990203988,0,1.8094574213028,0,0,0,0,
95,0,7,4593.58974358974,4170.38461538462,4339.10256410256,4126.79487179487,4186.92307692308,4179.74358974359,4164.35897435897,4186.79487179487,4185.25641025641,4186.66666666667,4134.48717948718,4297.94871794872,4180.51282051282,4598.33333333333,3724,1984,1.90322012268606,0,1.8094574213028,0,0,0,0,
96,0,0,4580.64102564103,4172.69230769231,4331.53846153846,4135.64102564103,4191.28205128205,4182.94871794872,4172.69230769231,4187.4358974359,4187.4358974359,4190.76923076923,4135.38461538462,4295.89743589744,4183.58974358974,4596.66666666667,3276,1792,1.91110034333224,0,1.8094574213028,0,0,0,0,
97,0,93,4562.30769230769,4169.10256410256,4356.79487179487,4130,4188.71794871795,4181.92307692308,4170.64102564103,4184.8717948718,4185.38461538462,4192.82051282051,4132.17948717949,4311.41025641026,4181.92307692308,4608.71794871795,3276,1792,1.91908056397841,0,1.8094574213028,0,0,0,0,
98,0,9,4546.02564102564,4171.02564102564,4360,4131.79487179487,4193.20512820513,4183.84615384615,4171.66666666667,4186.92307692308,4180.89743589744,4190.38461538462,4134.48717948718,4305.12820512821,4180.64102564103,4611.53846153846,3276,1792,1.92696078462459,0,1.8094574213028,0,0,0,0,
99,0,7,4558.84615384615,4171.15384615385,4345.76923076923,4134.8717948718,4191.15384615385,4180.51282051282,4176.53846153846,4183.33333333333,4182.69230769231,4191.92307692308,4135.64102564103,4305.64102564103,4180.51282051282,4611.15384615385,3276,1792,1.93474100527077,0,1.8094574213028,0,0,0,0,
100,0,0,4572.69230769231,4173.84615384615,4328.84615384615,4141.02564102564,4190,4185.12820512821,4187.5641025641,4178.58974358974,4188.07692307692,4192.17948717949,4135.89743589744,4312.30769230769,4185.51282051282,4602.69230769231,3020,1792,1.94262122591695,0,1.93474102020264,0,0,0,0,
101,0,93,4578.46153846154,4168.46153846154,4364.35897435897,4131.79487179487,4185.12820512821,4181.53846153846,4193.20512820513,4175.38461538462,4185,4188.84615384615,4133.58974358974,4320.89743589744,4183.07692307692,4606.92307692308,3020,1792,1.95040144656313,0,1.93474102020264,0,0,0,0,
102,0,9,4571.28205128205,4167.5641025641,4379.23076923077,4132.17948717949,4191.02564102564,4181.53846153846,4188.71794871795,4180.51282051282,4182.05128205128,4189.61538461538,4135.12820512821,4314.74358974359,4181.02564102564,4600.12820512821,3020,1792,1.95818166720931,0,1.93474102020264,0,0,0,0,
103,0,7,4591.66666666667,4165.89743589744,4364.61538461538,4136.53846153846,4188.84615384615,4180.51282051282,4191.66666666667,4188.46153846154,4187.30769230769,4192.4358974359,4136.53846153846,4327.69230769231,4181.02564102564,4595.12820512821,3020,1792,1.96596188785548,0,1.93474102020264,0,0,0,0,
104,0,0,4604.61538461538,4170.64102564103,4353.71794871795,4143.84615384615,4191.92307692308,4184.74358974359,4195.51282051282,4192.4358974359,4191.53846153846,4191.02564102564,4137.05128205128,4340,4184.23076923077,4594.23076923077,3020,1984,1.97384210850166,0,1.93474102020264,0,0,0,0,
105,0,93,4611.66666666667,4174.23076923077,4360.89743589744,4142.30769230769,4198.07692307692,4189.35897435897,4189.48717948718,4191.15384615385,4190.64102564103,4191.79487179487,4137.69230769231,4330,4184.74358974359,4598.58974358974,3020,1984,1.98172232914784,0,1.93474102020264,0,0,0,0,
106,0,9,4615.51282051282,4179.23076923077,4353.20512820513,4144.8717948718,4203.58974358974,4194.61538461538,4164.61538461538,4192.30769230769,4190.12820512821,4193.97435897436,4139.8717948718,4308.58974358974,4184.61538461538,4590.25641025641,3020,1984,1.98950254979402,0,1.93474102020264,0,0,0,0,
107,0,7,4613.58974358974,4179.74358974359,4345.25641025641,4143.97435897436,4200.25641025641,4191.53846153846,4169.10256410256,4194.74358974359,4188.58974358974,4189.23076923077,4136.15384615385,4297.82051282051,4183.58974358974,4586.53846153846,3020,1984,1.9972827704402,0,1.93474102020264,0,0,0,0,
108,0,0,4612.30769230769,4175.76923076923,4372.94871794872,4137.05128205128,4194.10256410256,4186.92307692308,4181.79487179487,4194.61538461538,4186.79487179487,4185,4131.41025641026,4295.76923076923,4183.71794871795,4589.35897435897,2892,2368,2.00516299108637,0,1.93474102020264,0,0,0,0,
109,0,93,4601.79487179487,4177.5641025641,4376.15384615385,4136.92307692308,4196.02564102564,4192.05128205128,4181.15384615385,4193.46153846154,4189.74358974359,4189.23076923077,4133.58974358974,4281.15384615385,4185.89743589744,4578.58974358974,2892,2368,2.01294321173255,0,1.93474102020264,0,0,0,0,
110,0,9,4633.33333333333,4176.15384615385,4368.71794871795,4130.12820512821,4195.38461538462,4191.15384615385,4175.25641025641,4190.64102564103,4190.51282051282,4193.58974358974,4133.46153846154,4276.92307692308,4183.07692307692,4579.74358974359,2892,2368,2.02072343237873,0,1.93474102020264,0,0,0,0,
111,0,7,4652.4358974359,4172.4358974359,4374.48717948718,4121.53846153846,4193.46153846154,4187.69230769231,4182.4358974359,4187.05128205128,4187.05128205128,4192.5641025641,4131.66666666667,4281.92307692308,4182.05128205128,4582.30769230769,2892,2368,2.02850365302491,0,1.93474102020264,0,0,0,0,
112,0,0,4641.53846153846,4170.64102564103,4386.53846153846,4112.4358974359,4186.41025641026,4183.58974358974,4183.07692307692,4179.8717948718,4185.89743589744,4191.53846153846,4133.20512820513,4276.53846153846,4183.97435897436,4588.97435897436,2956,2944,2.03638387367108,0,1.93474102020264,0,0,0,0,
113,0,93,4625.25641025641,4175.38461538462,4382.82051282051,4117.30769230769,4190.51282051282,4187.5641025641,4176.66666666667,4181.28205128205,4187.4358974359,4190.64102564103,4136.92307692308,4255.25641025641,4183.58974358974,4578.84615384615,2956,2944,2.04426409431726,0,1.93474102020264,0,0,0,0,
114,0,9,4640.51282051282,4170.51282051282,4380,4111.53846153846,4187.5641025641,4183.71794871795,4174.35897435897,4186.53846153846,4184.48717948718,4191.02564102564,4131.66666666667,4252.5641025641,4180.25641025641,4582.5641025641,2956,2944,2.05204431496344,0,1.93474102020264,0,0,0,0,
115,0,7,4632.17948717949,4168.33333333333,4373.46153846154,4113.97435897436,4186.92307692308,4183.71794871795,4172.82051282051,4187.5641025641,4184.48717948718,4191.28205128205,4130.25641025641,4240.38461538462,4182.5641025641,4578.71794871795,2956,2944,2.05982453560962,0,1.93474102020264,0,0,0,0,
116,0,0,4614.23076923077,4168.97435897436,4367.30769230769,4112.94871794872,4182.94871794872,4179.23076923077,4172.4358974359,4183.33333333333,4186.79487179487,4187.30769230769,4131.02564102564,4225.25641025641,4181.28205128205,4573.71794871795,2956,3008,2.0677047562558,0,2.05982446670532,0,0,0,0,
117,0,93,4603.97435897436,4172.4358974359,4355.76923076923,4118.84615384615,4185.38461538462,4181.92307692308,4169.35897435897,4187.5641025641,4187.05128205128,4186.66666666667,4133.07692307692,4213.46153846154,4180.51282051282,4559.74358974359,2956,3008,2.07548497690197,0,2.05982446670532,0,0,0,0,
118,0,9,4600.38461538462,4166.28205128205,4356.15384615385,4117.05128205128,4179.10256410256,4178.58974358974,4179.35897435897,4189.35897435897,4188.71794871795,4192.17948717949,4130,4235.76923076923,4179.61538461538,4567.5641025641,2956,3008,2.08326519754815,0,2.05982446670532,0,0,0,0,
119,0,7,4590.38461538462,4166.15384615385,4365.89743589744,4119.23076923077,4181.15384615385,4178.46153846154,4184.8717948718,4187.30769230769,4191.92307692308,4191.41025641026,4131.41025641026,4259.48717948718,4180.76923076923,4581.53846153846,2956,3008,2.09104541819433,0,2.05982446670532,0,0,0,0,
120,0,0,4588.97435897436,4167.69230769231,4356.66666666667,4121.15384615385,4185.64102564103,4178.33333333333,4179.35897435897,4188.07692307692,4188.71794871795,4190,4132.4358974359,4265.76923076923,4183.20512820513,4584.8717948718,2828,2688,2.09892563884051,0,2.05982446670532,0,0,0,0,
121,0,93,4586.79487179487,4171.53846153846,4311.41025641026,4138.58974358974,4193.46153846154,4183.71794871795,4172.05128205128,4193.71794871795,4184.8717948718,4192.17948717949,4133.46153846154,4241.15384615385,4188.07692307692,4573.33333333333,2828,2688,2.10680585948668,0,2.05982446670532,0,0,0,0,
122,0,9,4576.79487179487,4174.74358974359,4321.79487179487,4144.74358974359,4194.74358974359,4185.51282051282,4178.58974358974,4191.02564102564,4185.51282051282,4187.82051282051,4136.66666666667,4247.82051282051,4187.30769230769,4575.64102564103,2828,2688,2.11458608013286,0,2.05982446670532,0,0,0,0,
123,0,7,4551.66666666667,4181.02564102564,4342.4358974359,4138.97435897436,4198.20512820513,4186.79487179487,4171.92307692308,4185.12820512821,4187.30769230769,4184.74358974359,4139.23076923077,4281.53846153846,4184.74358974359,4589.23076923077,2828,2688,2.12236630077904,0,2.05982446670532,0,0,0,0,
124,0,0,4548.71794871795,4179.74358974359,4332.4358974359,4139.48717948718,4198.71794871795,4186.28205128205,4170.12820512821,4185.89743589744,4187.30769230769,4190,4136.66666666667,4294.8717948718,4185.25641025641,4591.02564102564,2700,2432,2.13024652142522,0,2.05982446670532,0,0,0,0,
125,0,93,4558.84615384615,4177.30769230769,4335.12820512821,4140.89743589744,4196.02564102564,4184.35897435897,4170.76923076923,4188.07692307692,4186.41025641026,4190.76923076923,4131.92307692308,4301.92307692308,4186.15384615385,4597.30769230769,2700,2432,2.1381267420714,0,2.05982446670532,0,0,0,0,
126,0,9,4553.97435897436,4180.12820512821,4347.05128205128,4144.35897435897,4199.48717948718,4186.66666666667,4179.23076923077,4186.92307692308,4187.17948717949,4188.20512820513,4132.82051282051,4296.41025641026,4185.64102564103,4598.58974358974,2700,2432,2.14590696271757,0,2.05982446670532,0,0,0,0,
127,0,55,4559.10256410256,4176.15384615385,4353.20512820513,4142.5641025641,4197.82051282051,4187.5641025641,4178.33333333333,4184.74358974359,4187.4358974359,4191.66666666667,4132.30769230769,4306.41025641026,4182.30769230769,4602.94871794872,2700,2432,2.15368718336375,0,2.05982446670532,0,0,0,0,
0,0,121,4572.82051282051,4174.23076923077,4354.61538461538,4141.28205128205,4196.53846153846,4188.46153846154,4182.30769230769,4185.12820512821,4186.15384615385,4191.66666666667,4133.97435897436,4319.74358974359,4182.82051282051,4608.84615384615,2700,1984,2.16156740400993,0,2.05982446670532,0,0,0,0,
1,0,0,4592.82051282051,4175.12820512821,4374.23076923077,4131.02564102564,4191.66666666667,4181.92307692308,4181.66666666667,4182.5641025641,4185.89743589744,4189.61538461538,4134.10256410256,4338.71794871795,4181.02564102564,4620.38461538462,2700,1984,2.16944762465611,0,2.05982446670532,0,0,0,0,
2,0,107,4587.69230769231,4177.5641025641,4364.74358974359,4134.35897435897,4194.74358974359,4179.8717948718,4184.48717948718,4185.89743589744,4186.02564102564,4187.94871794872,4134.35897435897,4332.05128205128,4181.28205128205,4604.48717948718,2700,1984,2.17722784530228,0,2.05982446670532,0,0,0,0,
3,0,0,4615.25641025641,4170.64102564103,4381.92307692308,4126.79487179487,4188.07692307692,4178.33333333333,4178.71794871795,4185.25641025641,4183.33333333333,4186.02564102564,4130.76923076923,4339.35897435897,4180.64102564103,4611.66666666667,2700,1984,2.18500806594846,0,2.05982446670532,0,0,0,0,
4,0,0,4633.07692307692,4171.15384615385,4387.82051282051,4126.53846153846,4188.58974358974,4184.8717948718,4173.84615384615,4180.25641025641,4184.10256410256,4186.15384615385,4129.8717948718,4347.5641025641,4181.28205128205,4617.30769230769,2700,1408,2.19288828659464,0,2.18500804901123,0,0,0,0,
5,0,0,4637.94871794872,4171.02564102564,4381.53846153846,4126.15384615385,4185.12820512821,4178.07692307692,4180.89743589744,4178.46153846154,4185,4184.74358974359,4128.58974358974,4349.23076923077,4179.61538461538,4611.66666666667,2700,1408,2.20066850724082,0,2.18500804901123,0,0,0,0,
6,0,329,4623.07692307692,4172.4358974359,4372.17948717949,4127.94871794872,4185.89743589744,4175.89743589744,4187.30769230769,4181.41025641026,4184.35897435897,4184.61538461538,4129.48717948718,4324.35897435897,4180.89743589744,4597.30769230769,2700,1408,2.208448727887,0,2.18500804901123,0,0,0,0,
7,0,6,4629.10256410256,4167.17948717949,4374.35897435897,4119.61538461538,4181.41025641026,4176.15384615385,4188.46153846154,4179.35897435897,4183.97435897436,4188.97435897436,4127.30769230769,4312.69230769231,4179.23076923077,4603.58974358974,2700,1408,2.21622894853317,0,2.18500804901123,0,0,0,0,
8,0,0,4637.30769230769,4169.23076923077,4377.4358974359,4119.61538461538,4182.4358974359,4178.07692307692,4189.61538461538,4180.89743589744,4186.02564102564,4190.12820512821,4127.30769230769,4313.33333333333,4181.41025641026,4598.33333333333,2636,1152,2.22410916917935,0,2.18500804901123,0,0,0,0,
9,0,0,4634.61538461538,4174.35897435897,4385.12820512821,4115.38461538462,4186.79487179487,4177.4358974359,4198.84615384615,4184.23076923077,4188.07692307692,4188.46153846154,4129.74358974359,4300.76923076923,4183.84615384615,4591.53846153846,2636,1152,2.23198938982553,0,2.18500804901123,0,0,0,0,
10,0,15,4623.33333333333,4178.46153846154,4376.66666666667,4121.15384615385,4193.46153846154,4186.28205128205,4177.82051282051,4185.51282051282,4188.46153846154,4190.89743589744,4133.20512820513,4270.89743589744,4182.5641025641,4578.97435897436,2636,1152,2.23976961047171,0,2.18500804901123,0,0,0,0,
11,0,0,4620.12820512821,4177.05128205128,4365.76923076923,4123.84615384615,4191.66666666667,4188.33333333333,4164.35897435897,4186.92307692308,4186.28205128205,4191.28205128205,4131.79487179487,4260.51282051282,4182.4358974359,4571.53846153846,2636,1152,2.24754983111788,0,2.18500804901123,0,0,0,0,
12,0,7,4641.15384615385,4176.92307692308,4373.84615384615,4116.66666666667,4189.10256410256,4181.28205128205,4173.58974358974,4190.89743589744,4185.38461538462,4187.82051282051,4132.69230769231,4257.05128205128,4184.74358974359,4579.8717948718,2380,640,2.25543005176406,0,2.18500804901123,0,0,0,0,
13,0,29,4640.38461538462,4176.15384615385,4381.79487179487,4115.12820512821,4190.89743589744,4181.02564102564,4172.5641025641,4191.02564102564,4188.71794871795,4189.61538461538,4133.46153846154,4245.64102564103,4183.58974358974,4574.74358974359,2380,640,2.26321027241024,0,2.18500804901123,0,0,0,0,
14,0,15,4633.33333333333,4172.4358974359,4374.48717948718,4116.79487179487,4189.8717948718,4184.10256410256,4154.35897435897,4187.4358974359,4187.69230769231,4192.30769230769,4130.64102564103,4244.10256410256,4181.79487179487,4578.97435897436,2380,640,2.27099049305642,0,2.18500804901123,0,0,0,0,
15,0,0,4633.07692307692,4173.33333333333,4368.33333333333,4111.15384615385,4186.66666666667,4181.41025641026,4158.71794871795,4188.07692307692,4183.84615384615,4189.10256410256,4130.25641025641,4245.12820512821,4181.15384615385,4587.5641025641,2380,640,2.2787707137026,0,2.18500804901123,0,0,0,0,
16,0,0,4639.23076923077,4171.15384615385,4372.30769230769,4100.51282051282,4180.12820512821,4173.07692307692,4163.33333333333,4186.15384615385,4184.23076923077,4185.12820512821,4130.12820512821,4247.5641025641,4179.35897435897,4590,1868,192,2.28665093434877,0,2.18500804901123,0,0,0,0,
17,0,0,4629.61538461538,4168.84615384615,4379.74358974359,4110.89743589744,4180.38461538462,4175.89743589744,4157.5641025641,4185.25641025641,4188.33333333333,4189.10256410256,4130.89743589744,4242.30769230769,4181.02564102564,4577.5641025641,1868,192,2.29453115499495,0,2.18500804901123,0,0,0,0,
18,0,0,4623.97435897436,4163.84615384615,4377.82051282051,4112.4358974359,4177.5641025641,4174.48717948718,4156.92307692308,4183.71794871795,4186.28205128205,4192.05128205128,4130.12820512821,4258.97435897436,4180.38461538462,4597.05128205128,1868,192,2.30231137564113,0,2.18500804901123,0,0,0,0,
19,0,0,4612.4358974359,4164.61538461538,4361.15384615385,4115.64102564103,4179.10256410256,4173.07692307692,4166.15384615385,4185.51282051282,4183.71794871795,4188.07692307692,4134.8717948718,4267.5641025641,4179.35897435897,4603.33333333333,1868,192,2.31009159628731,0,2.18500804901123,0,0,0,0,
20,0,0,4596.02564102564,4163.84615384615,4355.25641025641,4114.8717948718,4175.38461538462,4169.8717948718,4177.69230769231,4183.20512820513,4186.79487179487,4188.71794871795,4132.94871794872,4279.10256410256,4179.8717948718,4601.28205128205,1420,16000,2.31797181693348,0,2.31009149551392,0,0,0,0,
21,0,0,4575.12820512821,4166.15384615385,4352.17948717949,4127.05128205128,4182.82051282051,4173.58974358974,4179.23076923077,4182.94871794872,4187.5641025641,4191.92307692308,4130.64102564103,4276.28205128205,4184.10256410256,4596.02564102564,1420,16000,2.32575203757966,0,2.31009149551392,0,0,0,0,
22,0,0,4582.5641025641,4163.33333333333,4361.79487179487,4122.82051282051,4183.33333333333,4169.10256410256,4173.20512820513,4183.07692307692,4184.23076923077,4189.23076923077,4128.07692307692,4302.94871794872,4180.38461538462,4605.76923076923,1420,16000,2.33353225822584,0,2.31009149551392,0,0,0,0,
23,0,0,4581.02564102564,4165.64102564103,4360.12820512821,4121.02564102564,4185.12820512821,4171.41025641026,4180.12820512821,4185.64102564103,4185.51282051282,4188.33333333333,4129.74358974359,4320.76923076923,4178.71794871795,4610.89743589744,1420,16000,2.34131247887202,0,2.31009149551392,0,0,0,0,
24,0,0,4569.48717948718,4166.92307692308,4370.51282051282,4126.66666666667,4184.74358974359,4170.38461538462,4196.41025641026,4186.79487179487,4188.33333333333,4192.82051282051,4130.64102564103,4313.20512820513,4179.8717948718,4613.20512820513,908,15744,2.34919269951819,0,2.31009149551392,0,0,0,0,
25,0,0,4561.41025641026,4171.53846153846,4366.92307692308,4134.35897435897,4193.58974358974,4174.74358974359,4192.5641025641,4187.5641025641,4188.71794871795,4194.48717948718,4133.20512820513,4299.35897435897,4182.69230769231,4606.15384615385,908,15744,2.35707292016437,0,2.31009149551392,0,0,0,0,
26,0,0,4579.8717948718,4173.71794871795,4361.41025641026,4128.33333333333,4193.20512820513,4180.25641025641,4188.07692307692,4184.74358974359,4186.79487179487,4191.15384615385,4133.71794871795,4316.02564102564,4184.35897435897,4609.8717948718,908,15744,2.36485314081055,0,2.31009149551392,0,0,0,0,
27,0,0,4575.38461538462,4180.12820512821,4356.15384615385,4131.02564102564,4194.35897435897,4184.8717948718,4182.30769230769,4182.5641025641,4186.53846153846,4187.5641025641,4133.58974358974,4330,4187.69230769231,4608.33333333333,908,15744,2.37263336145673,0,2.31009149551392,0,0,0,0,
28,0,0,4573.20512820513,4180.89743589744,4361.53846153846,4137.69230769231,4197.5641025641,4183.33333333333,4181.79487179487,4180.89743589744,4187.05128205128,4189.10256410256,4134.74358974359,4331.41025641026,4187.05128205128,4602.30769230769,524,15616,2.38051358210291,0,2.31009149551392,0,0,0,0,
29,0,0,4596.66666666667,4178.07692307692,4367.05128205128,4135.64102564103,4194.10256410256,4185.89743589744,4170.89743589744,4181.79487179487,4187.82051282051,4190.89743589744,4132.4358974359,4348.84615384615,4183.58974358974,4608.97435897436,524,15616,2.38839380274908,0,2.31009149551392,0,0,0,0,
30,0,0,4605.76923076923,4177.82051282051,4355.64102564103,4138.07692307692,4192.30769230769,4189.74358974359,4174.74358974359,4183.33333333333,4187.30769230769,4190.51282051282,4131.41025641026,4344.23076923077,4184.10256410256,4611.41025641026,524,15616,2.39617402339526,0,2.31009149551392,0,0,0,0,
31,0,0,4623.33333333333,4175.89743589744,4377.69230769231,4136.15384615385,4191.28205128205,4182.94871794872,4177.69230769231,4178.07692307692,4185.25641025641,4191.02564102564,4131.41025641026,4335.25641025641,4182.05128205128,4616.66666666667,524,15616,2.40395424404144,0,2.31009149551392,0,0,0,0,
32,0,0,4634.10256410256,4175.12820512821,4390.25641025641,4132.30769230769,4189.74358974359,4177.82051282051,4175.25641025641,4176.79487179487,4185.51282051282,4191.28205128205,4130.89743589744,4344.74358974359,4182.82051282051,4621.53846153846,16332,15424,2.41183446468762,0,2.31009149551392,0,0,0,0,
33,0,0,4650.64102564103,4172.4358974359,4382.05128205128,4123.33333333333,4181.92307692308,4176.02564102564,4164.10256410256,4181.92307692308,4187.30769230769,4192.4358974359,4129.48717948718,4345,4183.07692307692,4624.10256410256,16332,15424,2.41961468533379,0,2.31009149551392,0,0,0,0,
34,0,0,4641.66666666667,4176.53846153846,4368.07692307692,4120.89743589744,4186.79487179487,4182.69230769231,4164.8717948718,4186.53846153846,4190,4189.74358974359,4131.79487179487,4316.41025641026,4181.15384615385,4609.23076923077,16332,15424,2.42739490597997,0,2.31009149551392,0,0,0,0,
35,0,0,4642.82051282051,4171.66666666667,4393.71794871795,4111.79487179487,4183.58974358974,4176.66666666667,4174.23076923077,4182.94871794872,4188.07692307692,4184.23076923077,4127.82051282051,4309.23076923077,4177.30769230769,4609.74358974359,16332,15424,2.43517512662615,0,2.31009149551392,0,0,0,0,
36,0,0,4631.15384615385,4172.05128205128,4397.94871794872,4116.53846153846,4183.71794871795,4175,4179.48717948718,4182.17948717949,4186.92307692308,4185.89743589744,4127.05128205128,4295.25641025641,4182.82051282051,4593.71794871795,16012,15168,2.44305534727233,0,2.43517518043518,0,0,0,0,
37,0,0,4636.41025641026,4174.23076923077,4376.53846153846,4110.64102564103,4181.53846153846,4175.64102564103,4177.4358974359,4181.28205128205,4187.30769230769,4191.28205128205,4129.48717948718,4278.84615384615,4184.10256410256,4591.15384615385,16012,15168,2.45093556791851,0,2.43517518043518,0,0,0,0,
38,0,0,4643.07692307692,4175,4369.23076923077,4109.48717948718,4184.61538461538,4181.02564102564,4171.28205128205,4181.02564102564,4187.69230769231,4193.33333333333,4133.20512820513,4275.25641025641,4180.89743589744,4597.17948717949,16012,15168,2.45871578856468,0,2.43517518043518,0,0,0,0,
39,0,0,4643.71794871795,4166.79487179487,4388.84615384615,4105.89743589744,4180.25641025641,4174.35897435897,4182.94871794872,4178.97435897436,4185.25641025641,4192.5641025641,4131.79487179487,4265.64102564103,4178.33333333333,4600.51282051282,16012,15168,2.46649600921086,0,2.43517518043518,0,0,0,0,
40,0,0,4638.46153846154,4170.51282051282,4382.69230769231,4108.84615384615,4179.74358974359,4172.94871794872,4187.94871794872,4180.76923076923,4183.71794871795,4192.30769230769,4132.17948717949,4225.64102564103,4180.12820512821,4585.64102564103,15436,14784,2.47437622985704,0,2.43517518043518,0,0,0,0,
41,0,0,4638.20512820513,4173.58974358974,4369.8717948718,4108.33333333333,4178.84615384615,4174.61538461538,4183.33333333333,4185,4187.17948717949,4191.41025641026,4135.12820512821,4224.35897435897,4180.25641025641,4583.33333333333,15436,14784,2.48215645050322,0,2.43517518043518,0,0,0,0,
42,0,0,4631.66666666667,4171.92307692308,4375.51282051282,4118.71794871795,4187.94871794872,4181.41025641026,4175.25641025641,4189.35897435897,4191.41025641026,4190.51282051282,4140.89743589744,4232.17948717949,4184.8717948718,4578.33333333333,15436,14784,2.48993667114939,0,2.43517518043518,0,0,0,0,
43,0,0,4617.82051282051,4172.94871794872,4379.8717948718,4121.66666666667,4191.66666666667,4184.10256410256,4170.38461538462,4188.20512820513,4189.35897435897,4190.76923076923,4139.23076923077,4222.05128205128,4188.71794871795,4566.41025641026,15436,14784,2.49771689179557,0,2.43517518043518,0,0,0,0,
44,0,0,4610.64102564103,4177.82051282051,4350.89743589744,4121.53846153846,4191.53846153846,4187.17948717949,4155.25641025641,4185.12820512821,4187.17948717949,4190.76923076923,4137.4358974359,4212.30769230769,4188.07692307692,4570.51282051282,14924,14208,2.50559711244175,0,2.43517518043518,0,0,0,0,
45,0,0,4608.33333333333,4173.97435897436,4350,4123.84615384615,4190.12820512821,4184.35897435897,4152.17948717949,4184.48717948718,4187.4358974359,4191.41025641026,4140,4233.20512820513,4187.05128205128,4581.79487179487,14924,14208,2.51347733308793,0,2.43517518043518,0,0,0,0,
46,0,0,4594.61538461538,4172.82051282051,4372.4358974359,4124.61538461538,4187.82051282051,4178.20512820513,4152.82051282051,4186.41025641026,4186.02564102564,4191.79487179487,4138.97435897436,4262.05128205128,4187.94871794872,4588.71794871795,14924,14208,2.52125755373411,0,2.43517518043518,0,0,0,0,
47,0,0,4579.35897435897,4176.41025641026,4359.74358974359,4130.12820512821,4185.89743589744,4178.46153846154,4157.82051282051,4187.82051282051,4185.89743589744,4190.89743589744,4137.94871794872,4261.02564102564,4186.53846153846,4581.53846153846,14924,14208,2.52903777438028,0,2.43517518043518,0,0,0,0,
48,0,0,4583.71794871795,4174.35897435897,4330.51282051282,4130.64102564103,4181.66666666667,4177.5641025641,4160.89743589744,4184.10256410256,4187.82051282051,4189.23076923077,4136.53846153846,4277.30769230769,4183.71794871795,4590.38461538462,14668,13696,2.53691799502646,0,2.43517518043518,0,0,0,0,
49,0,0,4594.23076923077,4174.23076923077,4342.82051282051,4131.66666666667,4182.82051282051,4174.61538461538,4173.71794871795,4184.48717948718,4188.46153846154,4188.46153846154,4136.02564102564,4302.69230769231,4186.28205128205,4600.76923076923,14668,13696,2.54469821567264,0,2.43517518043518,0,0,0,0,
50,0,0,4589.48717948718,4173.71794871795,4379.8717948718,4124.61538461538,4181.79487179487,4171.53846153846,4173.46153846154,4186.02564102564,4186.41025641026,4187.69230769231,4131.41025641026,4325.12820512821,4185.64102564103,4617.94871794872,14668,13696,2.55247843631882,0,2.43517518043518,0,0,0,0,
51,0,0,4565.38461538462,4174.35897435897,4375.76923076923,4129.23076923077,4187.30769230769,4177.5641025641,4167.4358974359,4187.4358974359,4185.64102564103,4186.66666666667,4133.84615384615,4308.07692307692,4183.84615384615,4615.12820512821,14668,13696,2.56025865696499,0,2.43517518043518,0,0,0,0,
52,0,0,4580.89743589744,4171.66666666667,4363.84615384615,4125.51282051282,4185.25641025641,4175,4168.97435897436,4186.28205128205,4187.17948717949,4192.05128205128,4134.8717948718,4314.61538461538,4181.53846153846,4619.8717948718,14412,12992,2.56813887761117,0,2.56015872955322,0,0,0,0,
53,0,0,4592.69230769231,4176.02564102564,4353.46153846154,4127.5641025641,4190.51282051282,4177.94871794872,4183.20512820513,4188.71794871795,4188.97435897436,4192.4358974359,4135,4321.79487179487,4185.64102564103,4619.8717948718,14412,12992,2.57601909825735,0,2.56015872955322,0,0,0,0,
54,0,0,4596.66666666667,4176.41025641026,4372.05128205128,4125.25641025641,4188.07692307692,4176.66666666667,4184.48717948718,4186.92307692308,4186.66666666667,4186.15384615385,4132.4358974359,4315.12820512821,4185.51282051282,4626.02564102564,14412,12992,2.58379931890353,0,2.56015872955322,0,0,0,0,
55,0,0,4593.07692307692,4182.94871794872,4371.92307692308,4131.92307692308,4187.82051282051,4181.79487179487,4173.46153846154,4184.61538461538,4186.15384615385,4185.25641025641,4133.84615384615,4302.5641025641,4184.35897435897,4616.53846153846,14412,12992,2.59157953954971,0,2.56015872955322,0,0,0,0,
56,0,0,4637.17948717949,4183.20512820513,4359.35897435897,4129.61538461538,4182.30769230769,4180.89743589744,4173.97435897436,4182.69230769231,4188.46153846154,4192.94871794872,4134.23076923077,4307.5641025641,4184.61538461538,4625.25641025641,14156,12480,2.59945976019588,0,2.56015872955322,0,0,0,0,
57,0,0,4661.15384615385,4187.82051282051,4349.61538461538,4128.97435897436,4184.35897435897,4178.20512820513,4177.94871794872,4183.58974358974,4188.84615384615,4195.89743589744,4134.35897435897,4311.92307692308,4187.94871794872,4632.94871794872,14156,12480,2.60733998084206,0,2.56015872955322,0,0,0,0,
58,0,0,4670.51282051282,4186.66666666667,4349.23076923077,4130.38461538462,4186.41025641026,4176.15384615385,4175.64102564103,4184.61538461538,4188.58974358974,4188.71794871795,4134.61538461538,4291.02564102564,4186.92307692308,4639.8717948718,14156,12480,2.61512020148824,0,2.56015872955322,0,0,0,0,
59,0,0,4675.51282051282,4194.61538461538,4326.66666666667,4141.79487179487,4193.97435897436,4187.17948717949,4152.69230769231,4189.10256410256,4190,4184.35897435897,4136.92307692308,4250.38461538462,4186.79487179487,4631.92307692308,14156,12480,2.62290042213442,0,2.56015872955322,0,0,0,0,
60,0,0,4673.58974358974,4214.35897435897,4309.48717948718,4142.05128205128,4197.30769230769,4191.02564102564,4144.74358974359,4188.58974358974,4188.20512820513,4186.53846153846,4135,4236.41025641026,4187.5641025641,4624.35897435897,13900,11904,2.63078064278059,0,2.56015872955322,0,0,0,0,
61,0,0,4675.76923076923,4205.51282051282,4335.89743589744,4132.82051282051,4194.8717948718,4186.15384615385,4150,4184.8717948718,4188.20512820513,4186.79487179487,4131.66666666667,4252.17948717949,4187.05128205128,4628.58974358974,13900,11904,2.63866086342677,0,2.56015872955322,0,0,0,0,
62,0,0,4668.58974358974,4184.35897435897,4353.20512820513,4128.58974358974,4193.33333333333,4184.8717948718,4156.53846153846,4187.5641025641,4192.69230769231,4183.71794871795,4132.69230769231,4248.84615384615,4185.12820512821,4627.5641025641,13900,11904,2.64644108407295,0,2.56015872955322,0,0,0,0,
63,0,0,4692.69230769231,4184.35897435897,4337.82051282051,4126.92307692308,4191.92307692308,4183.58974358974,4147.05128205128,4188.07692307692,4189.10256410256,4186.66666666667,4133.07692307692,4231.41025641026,4183.20512820513,4625,13900,11904,2.65422130471913,0,2.56015872955322,0,0,0,0,
64,0,37,4695.89743589744,4197.05128205128,4321.02564102564,4124.8717948718,4195,4184.23076923077,4145.89743589744,4181.66666666667,4182.30769230769,4186.53846153846,4129.10256410256,4229.74358974359,4183.58974358974,4617.4358974359,13644,11264,2.66210152536531,0,2.56015872955322,0,0,0,0,
65,0,0,4689.61538461539,4185.25641025641,4346.53846153846,4113.46153846154,4190.64102564103,4182.30769230769,4150.51282051282,4177.4358974359,4183.20512820513,4184.48717948718,4129.74358974359,4230.38461538462,4182.30769230769,4630.12820512821,13644,11264,2.66988174601148,0,2.56015872955322,0,0,0,0,
66,0,156,4679.8717948718,4180.25641025641,4378.46153846154,4111.53846153846,4187.82051282051,4181.02564102564,4155.89743589744,4182.94871794872,4185.12820512821,4185.25641025641,4135.51282051282,4220.12820512821,4181.92307692308,4627.5641025641,13644,11264,2.67766196665766,0,2.56015872955322,0,0,0,0,
67,0,0,4689.74358974359,4183.97435897436,4375.89743589744,4107.5641025641,4181.92307692308,4173.20512820513,4157.82051282051,4183.46153846154,4181.28205128205,4183.84615384615,4132.17948717949,4214.35897435897,4183.46153846154,4620.25641025641,13644,11264,2.68544218730384,0,2.56015872955322,0,0,0,0,
68,0,0,4688.97435897436,4186.02564102564,4351.53846153846,4109.35897435897,4185.64102564103,4177.5641025641,4151.28205128205,4183.20512820513,4183.46153846154,4187.4358974359,4130.64102564103,4196.92307692308,4184.35897435897,4609.23076923077,13452,11008,2.69332240795002,0,2.68544220924377,0,0,0,0,
69,0,0,4682.4358974359,4179.61538461538,4373.20512820513,4098.20512820513,4179.23076923077,4177.17948717949,4150.25641025641,4179.8717948718,4188.20512820513,4191.79487179487,4129.48717948718,4200.25641025641,4178.84615384615,4612.4358974359,13452,11008,2.70110262859619,0,2.68544220924377,0,0,0,0,
70,0,237,4665.76923076923,4175.38461538462,4396.53846153846,4102.5641025641,4176.53846153846,4174.10256410256,4148.58974358974,4178.07692307692,4188.84615384615,4190.64102564103,4129.48717948718,4201.15384615385,4177.82051282051,4601.02564102564,13452,11008,2.70888284924237,0,2.68544220924377,0,0,0,0,
71,0,0,4644.23076923077,4176.02564102564,4374.8717948718,4107.17948717949,4174.74358974359,4167.4358974359,4144.10256410256,4177.69230769231,4188.46153846154,4188.97435897436,4127.17948717949,4216.79487179487,4178.58974358974,4594.23076923077,13452,11008,2.71666306988855,0,2.68544220924377,0,0,0,0,
72,0,0,4638.84615384615,4181.53846153846,4344.35897435897,4115.12820512821,4178.20512820513,4171.66666666667,4151.15384615385,4181.92307692308,4188.20512820513,4191.28205128205,4131.02564102564,4226.66666666667,4180.12820512821,4596.41025641026,13132,10432,2.72454329053473,0,2.68544220924377,0,0,0,0,
73,0,0,4634.8717948718,4178.58974358974,4362.69230769231,4117.5641025641,4173.46153846154,4170.12820512821,4176.79487179487,4183.07692307692,4186.15384615385,4189.35897435897,4131.28205128205,4243.97435897436,4182.4358974359,4597.5641025641,13132,10432,2.73252351118091,0,2.68544220924377,0,0,0,0,
74,0,12,4606.79487179487,4180,4358.71794871795,4128.97435897436,4180.51282051282,4172.5641025641,4176.79487179487,4184.61538461538,4187.30769230769,4186.66666666667,4133.07692307692,4246.53846153846,4188.33333333333,4591.79487179487,13132,10432,2.74040373182708,0,2.68544220924377,0,0,0,0,
75,0,0,4602.05128205128,4183.07692307692,4343.58974358974,4129.74358974359,4190.38461538462,4176.79487179487,4162.94871794872,4187.4358974359,4186.41025641026,4192.05128205128,4136.66666666667,4259.8717948718,4187.69230769231,4596.53846153846,13132,10432,2.74818395247326,0,2.68544220924377,0,0,0,0,
76,0,35,4593.71794871795,4189.48717948718,4341.02564102564,4131.66666666667,4197.69230769231,4184.10256410256,4159.48717948718,4185.64102564103,4183.46153846154,4194.10256410256,4137.5641025641,4268.33333333333,4185.25641025641,4593.97435897436,12812,9792,2.75606417311944,0,2.68544220924377,0,0,0,0,
77,0,0,4578.20512820513,4189.48717948718,4355.51282051282,4141.41025641026,4197.17948717949,4186.28205128205,4174.48717948718,4178.97435897436,4184.74358974359,4187.30769230769,4134.23076923077,4269.48717948718,4185.89743589744,4588.58974358974,12812,9792,2.76404439376562,0,2.68544220924377,0,0,0,0,
78,0,12,4573.07692307692,4188.71794871795,4355.76923076923,4141.66666666667,4195.12820512821,4185.12820512821,4175.12820512821,4178.71794871795,4185.64102564103,4184.10256410256,4131.02564102564,4279.48717948718,4186.79487179487,4598.07692307692,12812,9792,2.77192461441179,0,2.68544220924377,0,0,0,0,
79,0,0,4575.12820512821,4190.12820512821,4346.28205128205,4138.84615384615,4195.51282051282,4184.23076923077,4175.12820512821,4182.82051282051,4182.82051282051,4191.02564102564,4133.58974358974,4281.15384615385,4186.15384615385,4599.23076923077,12812,9792,2.77970483505797,0,2.68544220924377,0,0,0,0,
80,0,35,4577.69230769231,4191.92307692308,4355.12820512821,4139.8717948718,4195.64102564103,4182.05128205128,4171.79487179487,4180.89743589744,4181.66666666667,4191.92307692308,4132.69230769231,4302.82051282051,4183.20512820513,4603.20512820513,12364,9152,2.78758505570415,0,2.68544220924377,0,0,0,0,
81,0,0,4586.92307692308,4191.53846153846,4371.53846153846,4141.02564102564,4197.05128205128,4181.02564102564,4177.94871794872,4180.76923076923,4187.17948717949,4189.23076923077,4129.35897435897,4323.97435897436,4184.23076923077,4611.79487179487,12364,9152,2.79536527635033,0,2.68544220924377,0,0,0,0,
82,0,12,4610.38461538462,4186.15384615385,4393.07692307692,4130.25641025641,4192.4358974359,4177.69230769231,4179.8717948718,4183.20512820513,4189.61538461538,4192.82051282051,4128.97435897436,4331.79487179487,4183.58974358974,4619.74358974359,12364,9152,2.80314549699651,0,2.68544220924377,0,0,0,0,
83,0,0,4613.33333333333,4186.53846153846,4377.17948717949,4133.58974358974,4196.53846153846,4183.07692307692,4184.10256410256,4183.46153846154,4186.28205128205,4195.12820512821,4135.12820512821,4323.46153846154,4184.8717948718,4605.51282051282,12364,9152,2.81092571764268,0,2.68544220924377,0,0,0,0,
84,0,35,4633.20512820513,4185.76923076923,4381.53846153846,4131.79487179487,4190.76923076923,4179.48717948718,4179.23076923077,4179.35897435897,4183.46153846154,4190.89743589744,4133.84615384615,4344.10256410256,4182.05128205128,4611.15384615385,12108,8448,2.81880593828886,0,2.81082582473755,0,0,0,0,
85,0,0,4629.35897435897,4190,4385.25641025641,4133.07692307692,4188.07692307692,4175.64102564103,4178.46153846154,4180.89743589744,4185.51282051282,4188.97435897436,4130.89743589744,4345.76923076923,4180.12820512821,4611.79487179487,12108,8448,2.82668615893504,0,2.81082582473755,0,0,0,0,
86,0,12,4638.33333333333,4185.76923076923,4384.35897435897,4127.69230769231,4184.61538461538,4173.33333333333,4178.46153846154,4181.02564102564,4187.5641025641,4191.41025641026,4128.58974358974,4327.30769230769,4179.61538461538,4612.17948717949,12108,8448,2.83446637958122,0,2.81082582473755,0,0,0,0,
87,0,0,4646.41025641026,4184.74358974359,4367.17948717949,4131.66666666667,4188.97435897436,4182.30769230769,4173.58974358974,4179.74358974359,4189.74358974359,4191.53846153846,4130.38461538462,4305.51282051282,4182.82051282051,4604.10256410256,12108,8448,2.84224660022739,0,2.81082582473755,0,0,0,0,
88,0,35,4646.02564102564,4182.69230769231,4380.25641025641,4126.15384615385,4184.8717948718,4177.94871794872,4183.84615384615,4178.97435897436,4189.10256410256,4190.12820512821,4129.35897435897,4304.74358974359,4180,4603.84615384615,12172,8128,2.85012682087357,0,2.81082582473755,0,0,0,0,
89,0,0,4630.38461538462,4185.12820512821,4390.51282051282,4123.07692307692,4184.10256410256,4176.92307692308,4197.82051282051,4184.35897435897,4187.30769230769,4188.58974358974,4128.97435897436,4286.53846153846,4179.48717948718,4589.23076923077,12172,8128,2.85790704151975,0,2.81082582473755,0,0,0,0,
90,0,12,4633.46153846154,4184.8717948718,4380.12820512821,4119.74358974359,4182.05128205128,4179.74358974359,4197.30769230769,4184.48717948718,4188.97435897436,4190.64102564103,4127.17948717949,4276.15384615385,4181.41025641026,4584.10256410256,12172,8128,2.86568726216593,0,2.81082582473755,0,0,0,0,
91,0,0,4648.07692307692,4190.12820512821,4379.10256410256,4127.94871794872,4190.89743589744,4185,4180.25641025641,4183.46153846154,4190.12820512821,4193.07692307692,4130.51282051282,4279.61538461538,4183.58974358974,4582.4358974359,12172,8128,2.87346748281211,0,2.81082582473755,0,0,0,0,
92,0,35,4644.74358974359,4192.17948717949,4394.74358974359,4124.74358974359,4196.92307692308,4185.12820512821,4177.82051282051,4186.15384615385,4185.89743589744,4190.64102564103,4133.46153846154,4272.69230769231,4183.33333333333,4577.4358974359,12236,7936,2.88134770345828,0,2.81082582473755,0,0,0,0,
93,0,0,4635.76923076923,4191.41025641026,4380.64102564103,4121.66666666667,4192.82051282051,4188.33333333333,4170.64102564103,4187.05128205128,4185.12820512821,4189.23076923077,4135.12820512821,4245.64102564103,4185.64102564103,4571.41025641026,12236,7936,2.88922792410446,0,2.81082582473755,0,0,0,0,
94,0,12,4636.02564102564,4190,4367.30769230769,4124.8717948718,4189.35897435897,4185.76923076923,4166.28205128205,4183.71794871795,4186.66666666667,4192.4358974359,4136.02564102564,4237.82051282051,4184.23076923077,4569.35897435897,12236,7936,2.89700814475064,0,2.81082582473755,0,0,0,0,
95,0,0,4638.84615384615,4187.69230769231,4393.33333333333,4120.51282051282,4192.30769230769,4178.20512820513,4160,4182.5641025641,4186.15384615385,4194.23076923077,4134.61538461538,4247.05128205128,4181.15384615385,4573.33333333333,12236,7936,2.90478836539682,0,2.81082582473755,0,0,0,0,
96,0,35,4619.10256410256,4185.89743589744,4403.58974358974,4116.66666666667,4191.28205128205,4181.28205128205,4153.20512820513,4183.84615384615,4187.4358974359,4193.33333333333,4133.07692307692,4233.58974358974,4182.4358974359,4565.89743589744,12108,7936,2.91266858604299,0,2.81082582473755,0,0,0,0,
97,0,0,4623.20512820513,4185,4383.58974358974,4111.02564102564,4182.5641025641,4182.4358974359,4146.79487179487,4180.76923076923,4188.84615384615,4193.33333333333,4131.66666666667,4224.48717948718,4182.05128205128,4570.64102564103,12108,7936,2.92054880668917,0,2.81082582473755,0,0,0,0,
98,0,12,4640.89743589744,4184.10256410256,4372.82051282051,4108.33333333333,4181.28205128205,4180,4153.07692307692,4178.58974358974,4187.82051282051,4192.5641025641,4133.46153846154,4230.12820512821,4180.38461538462,4578.71794871795,12108,7936,2.92832902733535,0,2.81082582473755,0,0,0,0,
99,0,0,4626.41025641026,4179.74358974359,4376.66666666667,4108.33333333333,4180.25641025641,4174.48717948718,4156.02564102564,4174.23076923077,4183.84615384615,4191.53846153846,4133.33333333333,4249.61538461538,4180.38461538462,4593.71794871795,12108,7936,2.93610924798153,0,2.81082582473755,0,0,0,0,
100,0,35,4598.20512820513,4182.17948717949,4386.92307692308,4120.64102564103,4185.12820512821,4174.61538461538,4156.28205128205,4176.79487179487,4183.84615384615,4189.48717948718,4133.46153846154,4253.84615384615,4186.15384615385,4585.89743589744,12044,7872,2.94398946862771,0,2.9361093044281,0,0,0,0,
101,0,0,4610.64102564103,4179.23076923077,4379.48717948718,4114.61538461538,4179.61538461538,4168.97435897436,4162.5641025641,4182.05128205128,4183.07692307692,4187.82051282051,4131.66666666667,4272.17948717949,4185.64102564103,4590.64102564103,12044,7872,2.95176968927388,0,2.9361093044281,0,0,0,0,
102,0,12,4612.5641025641,4180.38461538462,4348.97435897436,4117.69230769231,4180,4172.17948717949,4171.79487179487,4183.07692307692,4182.4358974359,4187.4358974359,4133.33333333333,4276.41025641026,4181.53846153846,4592.94871794872,12044,7872,2.95954990992006,0,2.9361093044281,0,0,0,0,
103,0,0,4587.94871794872,4182.17948717949,4372.05128205128,4122.30769230769,4180.51282051282,4171.92307692308,4178.07692307692,4176.41025641026,4184.23076923077,4185.12820512821,4131.28205128205,4288.33333333333,4180.25641025641,4597.82051282051,12044,7872,2.96733013056624,0,2.9361093044281,0,0,0,0,
104,0,35,4555.64102564103,4185.12820512821,4401.41025641026,4129.35897435897,4186.92307692308,4173.07692307692,4181.15384615385,4177.4358974359,4183.97435897436,4185,4134.35897435897,4296.79487179487,4185.25641025641,4596.28205128205,11788,7424,2.97521035121242,0,2.9361093044281,0,0,0,0,
105,0,0,4565.12820512821,4181.66666666667,4382.94871794872,4128.07692307692,4182.69230769231,4171.53846153846,4183.71794871795,4179.48717948718,4179.10256410256,4192.94871794872,4135,4307.17948717949,4183.58974358974,4606.02564102564,11788,7424,2.98299057185859,0,2.9361093044281,0,0,0,0,
106,0,12,4577.05128205128,4185.64102564103,4356.53846153846,4131.79487179487,4187.30769230769,4176.66666666667,4182.17948717949,4180.51282051282,4182.4358974359,4196.41025641026,4134.23076923077,4307.4358974359,4183.58974358974,4609.23076923077,11788,7424,2.99077079250477,0,2.9361093044281,0,0,0,0,
107,0,0,4581.79487179487,4190.51282051282,4378.97435897436,4134.23076923077,4194.74358974359,4178.71794871795,4189.74358974359,4183.84615384615,4188.20512820513,4189.61538461538,4134.35897435897,4300.38461538462,4188.84615384615,4617.05128205128,11788,7424,2.99855101315095,0,2.9361093044281,0,0,0,0,
108,0,35,4561.79487179487,4196.02564102564,4364.23076923077,4146.53846153846,4204.10256410256,4187.4358974359,4182.5641025641,4189.35897435897,4185.12820512821,4187.30769230769,4139.74358974359,4281.79487179487,4191.02564102564,4605,11404,6528,3.00643123379713,0,2.9361093044281,0,0,0,0,
109,0,0,4582.4358974359,4197.05128205128,4326.92307692308,4148.33333333333,4202.94871794872,4192.5641025641,4162.30769230769,4191.53846153846,4185.38461538462,4192.82051282051,4139.35897435897,4275.51282051282,4185.89743589744,4601.92307692308,11404,6528,3.0143114544433,0,2.9361093044281,0,0,0,0,
110,0,12,4626.28205128205,4195.25641025641,4330.51282051282,4142.4358974359,4199.23076923077,4190.38461538462,4148.07692307692,4191.66666666667,4187.5641025641,4194.61538461538,4132.82051282051,4293.07692307692,4185.76923076923,4623.84615384615,11404,6528,3.02209167508948,0,2.9361093044281,0,0,0,0,
111,0,0,4637.82051282051,4192.5641025641,4343.84615384615,4143.46153846154,4199.48717948718,4186.02564102564,4160.25641025641,4189.48717948718,4185.38461538462,4191.92307692308,4133.71794871795,4295.64102564103,4189.23076923077,4641.02564102564,11404,6528,3.02987189573566,0,2.9361093044281,0,0,0,0,
112,0,35,4657.94871794872,4192.94871794872,4333.97435897436,4144.61538461538,4196.79487179487,4186.92307692308,4155.38461538462,4185.51282051282,4187.82051282051,4189.8717948718,4136.15384615385,4276.02564102564,4187.5641025641,4653.97435897436,10700,5056,3.03775211638184,0,2.9361093044281,0,0,0,0,
113,0,0,4666.41025641026,4192.17948717949,4306.53846153846,4144.8717948718,4197.4358974359,4192.17948717949,4147.82051282051,4185.76923076923,4191.02564102564,4191.66666666667,4134.23076923077,4262.5641025641,4187.17948717949,4655.76923076923,10700,5056,3.04573233702802,0,2.9361093044281,0,0,0,0,
114,0,12,4677.5641025641,4182.30769230769,4328.58974358974,4133.20512820513,4193.71794871795,4187.30769230769,4153.33333333333,4187.94871794872,4189.35897435897,4192.5641025641,4130,4277.30769230769,4186.92307692308,4662.05128205128,10700,5056,3.05351255767419,0,2.9361093044281,0,0,0,0,
115,0,0,4674.10256410256,4179.35897435897,4350.25641025641,4128.84615384615,4191.53846153846,4182.4358974359,4164.10256410256,4191.41025641026,4189.8717948718,4190.76923076923,4130.25641025641,4278.20512820513,4186.28205128205,4659.23076923077,10700,5056,3.06129277832037,0,2.9361093044281,0,0,0,0,
116,0,35,4680.76923076923,4183.84615384615,4346.02564102564,4123.46153846154,4185.76923076923,4179.48717948718,4154.35897435897,4188.97435897436,4188.20512820513,4190.64102564103,4128.71794871795,4257.94871794872,4183.84615384615,4660.51282051282,9932,3392,3.06917299896655,0,3.06119275093079,0,0,0,0,
117,0,0,4661.02564102564,4184.61538461538,4329.35897435897,4124.35897435897,4192.17948717949,4185.89743589744,4146.28205128205,4185.12820512821,4186.15384615385,4190.51282051282,4130.38461538462,4235.76923076923,4184.48717948718,4639.61538461538,9932,3392,3.07705321961273,0,3.06119275093079,0,0,0,0,
118,0,12,4668.20512820513,4171.79487179487,4342.94871794872,4112.30769230769,4189.10256410256,4180,4154.8717948718,4186.66666666667,4189.10256410256,4188.33333333333,4130.89743589744,4238.84615384615,4183.20512820513,4646.28205128205,9932,3392,3.08483344025891,0,3.06119275093079,0,0,0,0,
119,0,0,4677.17948717949,4174.23076923077,4352.05128205128,4111.66666666667,4186.53846153846,4180,4163.20512820513,4193.58974358974,4191.41025641026,4188.46153846154,4131.66666666667,4234.35897435897,4183.84615384615,4646.79487179487,9932,3392,3.09261366090508,0,3.06119275093079,0,0,0,0,
120,0,35,4668.84615384615,4177.05128205128,4345,4109.74358974359,4183.20512820513,4180,4163.33333333333,4188.97435897436,4188.07692307692,4191.28205128205,4129.23076923077,4222.5641025641,4182.5641025641,4642.17948717949,9356,1408,3.10049388155126,0,3.06119275093079,0,0,0,0,
121,0,0,4665.64102564103,4173.97435897436,4332.17948717949,4113.20512820513,4189.61538461538,4182.69230769231,4156.79487179487,4186.15384615385,4186.53846153846,4190.76923076923,4129.61538461538,4204.48717948718,4184.48717948718,4642.94871794872,9356,1408,3.10837410219744,0,3.06119275093079,0,0,0,0,
122,0,12,4675.38461538462,4167.17948717949,4335,4107.5641025641,4187.30769230769,4178.20512820513,4160.89743589744,4189.74358974359,4186.53846153846,4188.84615384615,4130.89743589744,4196.66666666667,4183.71794871795,4647.30769230769,9356,1408,3.11615432284362,0,3.06119275093079,0,0,0,0,
123,0,0,4674.35897435897,4171.15384615385,4333.07692307692,4105.64102564103,4186.41025641026,4180.76923076923,4158.33333333333,4191.15384615385,4189.8717948718,4190.51282051282,4135.12820512821,4177.30769230769,4183.71794871795,4638.33333333333,9356,1408,3.12393454348979,0,3.06119275093079,0,0,0,0,
124,0,35,4662.30769230769,4171.92307692308,4330.12820512821,4108.07692307692,4188.33333333333,4183.46153846154,4156.15384615385,4190.89743589744,4190.25641025641,4192.82051282051,4135.25641025641,4179.61538461538,4187.30769230769,4636.15384615385,8908,16000,3.13181476413597,0,3.06119275093079,0,0,0,0,
125,0,0,4641.02564102564,4172.69230769231,4330.51282051282,4122.5641025641,4197.82051282051,4187.69230769231,4149.61538461538,4195.51282051282,4188.33333333333,4191.79487179487,4136.92307692308,4186.02564102564,4191.41025641026,4627.5641025641,8908,16000,3.13959498478215,0,3.06119275093079,0,0,0,0,
126,0,12,4627.69230769231,4171.79487179487,4331.41025641026,4126.41025641026,4198.46153846154,4186.79487179487,4148.71794871795,4194.10256410256,4190.89743589744,4190.25641025641,4140.51282051282,4187.30769230769,4187.4358974359,4616.66666666667,8908,16000,3.14737520542833,0,3.06119275093079,0,0,0,0,
127,0,55,4624.61538461538,4168.97435897436,4313.97435897436,4122.82051282051,4193.71794871795,4184.23076923077,4140.51282051282,4189.35897435897,4191.53846153846,4191.02564102564,4140.25641025641,4191.15384615385,4185.64102564103,4623.46153846154,8908,16000,3.1551554260745,0,3.06119275093079,0,0,0,0,
0,0,20,4612.69230769231,4166.53846153846,4319.10256410256,4129.74358974359,4194.48717948718,4184.48717948718,4145,4191.15384615385,4187.05128205128,4192.17948717949,4140.51282051282,4212.05128205128,4191.53846153846,4625.51282051282,8844,15424,3.16303564672068,0,3.06119275093079,0,0,0,0,
1,0,78,4595.89743589744,4166.53846153846,4334.74358974359,4134.48717948718,4195.64102564103,4180.64102564103,4152.5641025641,4188.20512820513,4186.15384615385,4189.74358974359,4140.51282051282,4251.41025641026,4191.28205128205,4633.58974358974,8844,15424,3.17091586736686,0,3.06119275093079,0,0,0,0,
2,0,67,4593.84615384615,4168.07692307692,4332.82051282051,4134.48717948718,4195.25641025641,4177.69230769231,4156.79487179487,4183.58974358974,4187.94871794872,4190,4138.58974358974,4268.58974358974,4187.69230769231,4634.48717948718,8844,15424,3.17869608801304,0,3.06119275093079,0,0,0,0,
3,0,0,4599.23076923077,4162.69230769231,4322.17948717949,4126.53846153846,4191.28205128205,4177.5641025641,4154.48717948718,4182.4358974359,4186.02564102564,4193.33333333333,4135.12820512821,4282.05128205128,4185.64102564103,4643.46153846154,8844,15424,3.18647630865922,0,3.06119275093079,0,0,0,0,
4,0,0,4584.35897435897,4161.41025641026,4329.23076923077,4130.38461538462,4193.20512820513,4181.15384615385,4169.35897435897,4184.8717948718,4186.15384615385,4192.05128205128,4137.5641025641,4289.8717948718,4187.17948717949,4648.07692307692,8460,14848,3.19435652930539,0,3.18647623062134,0,0,0,0,
5,0,0,4570.51282051282,4167.17948717949,4367.82051282051,4127.94871794872,4190.64102564103,4178.58974358974,4182.30769230769,4182.69230769231,4188.46153846154,4188.71794871795,4133.58974358974,4320.76923076923,4184.23076923077,4654.23076923077,8460,14848,3.20213674995157,0,3.18647623062134,0,0,0,0,
